#1-sta 2-avgThroughput 3-stdThroughput 4-JFI 5-stdJFI 6-Bandwidth 7-avgDelay 8-stdDelay 9-avgBackoffStage 10-stdBackoffStage 11-totalFractionOfCollisionSlots 12.stdCollidingSlots 13.avgThroughputDCF 14. stdThroughputDCF 15.avgThroughputECA 16.stdThroughputECA 17.Sum of 15 and 16 18. std of 17 19. AvgBlockingProb 20. StdBlockingProb 21. AvgDroppedPackets 22.StdDropped 23.SxSlots 24.stdSxSlots 25.ColSlots 26.StdColSlots 27.EmptySlots 28.stdEmpty 29.totalSlots 30.stdTotalSlots 31.averageTAU 32.stdTAU 33.avgQSize 34.stdQSize 35.avgQEmpty 36.stdQEmpty 37. avgQDelay 38. stdQDelay
2 5.59114e+07 41156.5 0.999996 1.66417e-06 6.5e+07 0.00937159 0.000220453 0.131313 0.261946 0.0115709 0.000204723 0 0 2.79595e+07 20756.7 5.5919e+07 41521.3 0.568591 0.000504437 0 0 21338.9 16.7417 1337.8 16.9002 92950.7 589.109 115627 587.993 0.103847 0.000606063 991.919 5.07405 11.8283 7.18309 0.29008 0
3 5.35845e+07 60145.4 0.999548 0.000158415 6.5e+07 0.0146769 0.000470851 0.377104 0.302056 0.0252014 0.000451699 0 0 1.78624e+07 19999.8 5.35871e+07 60014.5 0.723938 0.000353136 0 0 20447.2 22.8609 2277.82 24.243 67671.5 680.259 90396.5 678.772 0.0925053 0.000791451 995.414 3.582 7.12121 2.97557 0.455204 0
4 5.18292e+07 75795.1 0.999113 0.000497569 6.5e+07 0.0202357 0.00112818 0.896465 0.418948 0.0384911 0.000355852 0 0 1.29577e+07 18861.8 5.18307e+07 75443.3 0.79938 0.000331825 8.16162 7.27901 19776.1 28.7701 2974.76 28.5091 54534.6 452.756 77285.4 451.692 0.0838374 0.000469118 996.583 2.66998 5.37374 2.32068 0.62804 0
5 5.05127e+07 98270.1 0.99902 0.000698612 6.5e+07 0.0259512 0.0015997 0.933333 0.536355 0.0500798 0.000634381 0 0 1.01027e+07 19606.1 5.05134e+07 98032.6 0.843296 0.000335279 18.2303 11.0426 19273.3 37.3934 3492.59 37.1114 46979.1 640.991 69745 639.543 0.0761531 0.000698119 997.683 2.18184 4.65657 1.84315 0.805233 0
6 4.93826e+07 102474 0.99859 0.000768646 6.5e+07 0.031855 0.00233432 1.17677 0.522672 0.0609691 0.000700566 0 0 8.23047e+06 17104.3 4.93828e+07 102628 0.872081 0.000274695 29.6296 11.351 18841.8 39.3501 3934.58 39.0571 41760.8 522.049 64537.2 520.954 0.0700214 0.00055568 997.983 1.66186 4.24242 1.96993 0.987953 0
7 4.84089e+07 123793 0.997852 0.00115172 6.5e+07 0.0379202 0.0034473 1.33189 0.491875 0.0709054 0.000817054 0 0 6.91556e+06 17653.9 4.84089e+07 123575 0.89229 0.000279755 45.5758 11.7218 18470.1 47.3325 4313.83 46.9603 38057.7 493.489 60841.7 492.495 0.0648289 0.000522315 998.169 1.57205 3.91919 1.7389 1.17533 0
8 4.75587e+07 108016 0.99702 0.00155614 6.5e+07 0.0441269 0.0040875 1.46717 0.426988 0.0801278 0.000999593 0 0 5.94484e+06 13499.9 4.75587e+07 107991 0.907207 0.000215427 59.9596 14.6886 18145.5 41.2566 4644.12 41.2333 35173.7 508.67 57963.3 507.682 0.0604793 0.000546382 998.641 1.45965 3.54545 1.38734 1.36666 0
9 4.67901e+07 125334 0.996617 0.0017539 6.5e+07 0.05044 0.00503682 1.76319 0.418325 0.0888102 0.00105333 0 0 5.19888e+06 13943 4.67899e+07 125489 0.918664 0.000222849 74.1639 16.5233 17852.1 47.6773 4942.09 47.6782 32856.7 449.526 55650.9 448.708 0.0568077 0.000456845 998.834 1.14756 3.38384 1.39774 1.56118 0
10 4.61241e+07 116194 0.99619 0.00173701 6.5e+07 0.0568551 0.00552084 1.72424 0.417325 0.0967733 0.00103747 0 0 4.61239e+06 11621.4 4.61239e+07 116214 0.927667 0.000179223 90.0848 15.4331 17597.7 44.3403 5200.27 44.2075 30941.1 365.228 53739 364.322 0.0536049 0.000379534 998.859 1.01345 2.91919 1.33845 1.75771 0
11 4.54907e+07 101097 0.995696 0.00174446 6.5e+07 0.0633864 0.00603414 1.87879 0.414086 0.104527 0.00104367 0 0 4.1355e+06 9205.7 4.54905e+07 101253 0.934988 0.000148347 102.964 15.348 17356 38.5424 5445.32 38.6637 29296.2 379.61 52097.5 378.736 0.050868 0.000377983 998.972 1.03633 2.87879 1.3354 1.95854 0
12 4.49237e+07 110988 0.994938 0.00185705 6.5e+07 0.0700249 0.00620331 2.06145 0.404725 0.111751 0.00102326 0 0 3.7436e+06 9252.57 4.49232e+07 111036 0.940998 0.000148762 117.764 13.5323 17139.5 42.3555 5664.65 42.1928 27887.7 337.563 50691.8 336.923 0.0484347 0.000330705 999.116 0.901463 2.67677 1.18772 2.16153 0
13 4.43792e+07 120651 0.994412 0.00222857 6.5e+07 0.0767578 0.00754044 2.09557 0.367871 0.118526 0.0012832 0 0 3.41375e+06 9273.43 4.43788e+07 120552 0.946053 0.000145362 133.694 18.7845 16932 46.11 5874.71 46.0224 26760.8 371.546 49567.5 370.847 0.0462065 0.000365596 998.991 0.894897 2.89899 1.33708 2.36695 0
14 4.39029e+07 101879 0.99413 0.00266786 6.5e+07 0.0835225 0.0102795 2.16739 0.321555 0.125079 0.00119256 0 0 3.13589e+06 7297.05 4.39025e+07 102162 0.950316 0.000113155 142.014 14.6182 16750.1 38.9743 6058.62 38.8173 25632.1 330.973 48440.7 330.511 0.0442972 0.000317143 999.359 0.760244 2.66667 1.18918 2.57267 0
15 4.34454e+07 115561 0.99342 0.00203459 6.5e+07 0.0904186 0.00933453 2.26599 0.371546 0.131276 0.00130183 0 0 2.89632e+06 7697.68 4.34448e+07 115472 0.953986 0.000122212 154.936 15.8968 16575.4 44.0816 6235.29 43.8566 24689.6 387.839 47500.3 386.978 0.0425405 0.000359599 999.219 0.745722 2.41414 1.10106 2.78285 0
16 4.30138e+07 112996 0.993371 0.00219486 6.5e+07 0.0973228 0.0101374 2.24811 0.304436 0.137297 0.00131141 0 0 2.68834e+06 7061.14 4.30134e+07 112973 0.957169 0.000117174 168.545 15.6781 16410.7 43.0402 6401.79 43.0279 23817 327.56 46629.5 326.813 0.0409556 0.000306041 999.191 0.725451 2.45455 1.10346 2.99236 0
17 4.25738e+07 125092 0.99281 0.00264918 6.5e+07 0.104444 0.0124431 2.37968 0.337581 0.143312 0.00114112 0 0 2.50431e+06 7356.85 4.25733e+07 125067 0.959987 0.000117242 178.101 15.0487 16242.9 47.8349 6571.16 47.5281 23039.3 284.974 45853.3 284.394 0.0395315 0.000249327 999.345 0.655576 2.38384 1.11652 3.20822 0
18 4.21953e+07 120790 0.992315 0.00282304 6.5e+07 0.111516 0.0140697 2.46072 0.338001 0.14901 0.00139572 0 0 2.34415e+06 6707.18 4.21947e+07 120734 0.962435 0.000105397 190.653 15.4283 16098.3 46.1115 6717.26 45.9463 22265.9 334.476 45081.4 333.837 0.0382627 0.000291737 999.447 0.575547 2.19192 1.15187 3.42086 0
19 4.18032e+07 121037 0.991967 0.00258551 6.5e+07 0.118731 0.0161161 2.47315 0.355039 0.154387 0.00131088 0 0 2.20013e+06 6353.35 4.18026e+07 120709 0.964635 0.000102823 203.943 13.8555 15948.7 46.0783 6868.13 46.0708 21671.1 285.446 44487.9 285.021 0.0369959 0.000248019 999.407 0.602587 2.14141 0.88774 3.63858 0
20 4.14456e+07 112299 0.991551 0.00291656 6.5e+07 0.125975 0.0142739 2.57424 0.28501 0.159868 0.0012739 0 0 2.07225e+06 5621.43 4.14449e+07 112417 0.966595 9.20997e-05 209.277 15.2401 15812.2 42.8172 7005.99 42.8459 21006.7 247.478 43825 246.954 0.0359384 0.000216215 999.543 0.508464 2.14141 1.04456 3.85659 0
21 4.10894e+07 125089 0.990753 0.00274322 6.5e+07 0.133385 0.0165861 2.6253 0.28943 0.164909 0.00159241 0 0 1.95661e+06 5967.79 4.10887e+07 125322 0.968361 9.79372e-05 219.998 15.5332 15676.3 47.7049 7142.86 47.7182 20497 305.75 43316.1 305.133 0.0348633 0.000263559 999.507 0.540704 2.05051 1.10439 4.07796 0
22 4.07657e+07 113035 0.990737 0.00295836 6.5e+07 0.140717 0.0166917 2.57438 0.332986 0.169737 0.00140845 0 0 1.85295e+06 5149.98 4.07649e+07 113307 0.969945 8.60194e-05 228.584 13.9842 15552.7 43.1477 7267.41 43.1347 19997.1 263.135 42817.3 262.533 0.0338849 0.00022043 999.517 0.508325 1.92929 0.997497 4.29755 0
23 4.04362e+07 114054 0.990138 0.00336879 6.5e+07 0.14819 0.0181791 2.70224 0.346086 0.174902 0.00130861 0 0 1.75806e+06 4961.85 4.04353e+07 114123 0.97139 7.95258e-05 240.499 14.7415 15427.2 43.588 7394.1 43.4347 19455.6 256.27 42276.8 255.777 0.0330379 0.000201461 999.574 0.48885 2.11111 0.941618 4.52012 0
24 4.01188e+07 105946 0.990593 0.00241435 6.5e+07 0.155595 0.0175891 2.76431 0.295054 0.179819 0.001608 0 0 1.67159e+06 4412.86 4.01182e+07 105898 0.972713 7.17434e-05 245.697 15.3116 15305.9 40.3892 7516.28 40.423 18979.1 296.641 41801.3 295.995 0.0322246 0.000245609 999.588 0.449841 1.88889 0.930829 4.74287 0
25 3.9796e+07 105967 0.990132 0.00293809 6.5e+07 0.163325 0.0191536 2.72081 0.289729 0.18474 0.00142718 0 0 1.59181e+06 4236.52 3.97953e+07 105903 0.973932 6.34949e-05 252.16 12.9517 15182.6 40.4611 7640.38 40.4102 18536.1 272.219 41359.1 271.657 0.031452 0.000209398 999.601 0.414484 1.77778 0.859358 4.9707 0
26 3.95314e+07 107149 0.988946 0.0031743 6.5e+07 0.170959 0.0216295 2.74903 0.290781 0.189006 0.00145864 0 0 1.5204e+06 4125.86 3.95305e+07 107266 0.975017 6.51448e-05 263.223 13.837 15081.6 40.8615 7742.2 40.7865 18140.4 267.282 40964.3 266.725 0.0306991 0.000209686 999.613 0.397221 1.72727 0.874073 5.19743 0
27 3.92474e+07 120461 0.989147 0.00277777 6.5e+07 0.17861 0.0241403 2.75271 0.274791 0.193457 0.00141125 0 0 1.45357e+06 4459.48 3.92464e+07 120410 0.976035 6.97481e-05 271.216 13.957 14973.4 45.8588 7851.36 45.7394 17761.1 277.95 40585.9 277.433 0.0300138 0.000209221 999.62 0.393015 1.73737 0.704758 5.42318 0
28 3.89625e+07 103608 0.987924 0.00316726 6.5e+07 0.186538 0.0233172 2.75505 0.290056 0.19794 0.00133992 0 0 1.39149e+06 3691.89 3.89616e+07 103369 0.976982 5.75582e-05 278.061 13.6926 14864.6 39.4585 7960.82 39.3555 17393.9 218.682 40219.3 218.216 0.029367 0.000166911 999.695 0.3601 1.63636 0.797148 5.65844 0
29 3.87073e+07 112157 0.988286 0.00257127 6.5e+07 0.194155 0.0240394 2.8659 0.267142 0.202291 0.00153647 0 0 1.33471e+06 3869.21 3.87065e+07 112192 0.977849 6.25138e-05 282.895 15.0241 14767.2 42.7952 8058.96 42.6733 17013.7 252.138 39839.9 251.593 0.0287806 0.000189785 999.694 0.352318 1.63636 0.904026 5.88253 0
30 3.84298e+07 117794 0.98846 0.00291019 6.5e+07 0.201968 0.0263841 2.83502 0.240574 0.206537 0.00145656 0 0 1.28096e+06 3927.97 3.84288e+07 117842 0.978665 6.06147e-05 291.405 14.1774 14661.3 45.0767 8165.48 44.8878 16709.5 228.63 39536.3 228.123 0.0281812 0.000165811 999.691 0.350726 1.56566 0.866452 6.11244 0
31 3.82039e+07 101727 0.987945 0.00315392 6.5e+07 0.209793 0.0244377 2.9016 0.29545 0.210482 0.00157096 0 0 1.23236e+06 3283.6 3.8203e+07 101772 0.979409 5.61854e-05 294.861 13.1682 14575.2 38.8799 8252.37 38.8563 16380.8 219.983 39208.3 219.564 0.027637 0.000168654 999.671 0.352003 1.65657 0.793428 6.3426 0
32 3.79465e+07 130732 0.98749 0.00273792 6.5e+07 0.217847 0.0313779 2.88668 0.255023 0.214706 0.00146692 0 0 1.1858e+06 4082.37 3.79455e+07 130654 0.980116 6.82863e-05 302.313 13.2784 14476.9 49.9712 8351.26 49.7122 16068.8 210.761 38897 210.273 0.02712 0.000143671 999.653 0.359338 1.55556 0.806817 6.57411 0
33 3.77248e+07 111038 0.987249 0.00292128 6.5e+07 0.225703 0.028905 2.93419 0.271792 0.218402 0.00143836 0 0 1.14314e+06 3366.42 3.77236e+07 111095 0.980762 5.25892e-05 310.342 12.095 14392.2 42.4143 8436.59 42.2702 15800.8 210.298 38629.6 209.967 0.0266035 0.000142974 999.737 0.326199 1.38384 0.78762 6.80361 0
34 3.7444e+07 105291 0.987289 0.00273724 6.5e+07 0.23389 0.0293622 3.00297 0.232886 0.222769 0.00138952 0 0 1.10127e+06 3100.48 3.74431e+07 105424 0.981398 4.96148e-05 316.597 14.6607 14285.2 40.3531 8544.13 40.1851 15525.7 202.408 38355.1 201.899 0.0261421 0.000143882 999.721 0.323939 1.54545 0.700256 7.04328 0
35 3.72254e+07 111090 0.986654 0.00282761 6.5e+07 0.242005 0.0301781 2.97835 0.264901 0.22655 0.00154574 0 0 1.06356e+06 3168.35 3.72245e+07 110887 0.981972 5.09023e-05 321.718 11.8164 14201.8 42.3248 8627.94 42.2553 15255.3 211.096 38085.1 210.69 0.0256925 0.000146249 999.768 0.27364 1.52525 0.84499 7.27864 0
36 3.70174e+07 97148.4 0.986449 0.00336727 6.5e+07 0.250001 0.0300533 2.97671 0.236781 0.23035 0.00131344 0 0 1.02824e+06 2696.58 3.70166e+07 97089.9 0.982508 4.28222e-05 327.542 10.3518 14122.4 37.0458 8707.97 36.9429 14973.6 203.891 37804 203.583 0.0252763 0.00013969 999.704 0.30254 1.45455 0.700256 7.50887 0
37 3.68125e+07 108056 0.985578 0.00312982 6.5e+07 0.258156 0.0352909 3.01174 0.21523 0.234053 0.00133436 0 0 994906 2918.62 3.68115e+07 107982 0.983012 4.47373e-05 334.554 11.6696 14044.2 41.2341 8786.71 40.9982 14711.4 209.781 37542.3 209.254 0.0248726 0.000140487 999.761 0.300131 1.44444 0.684935 7.74279 0
38 3.66087e+07 122544 0.985781 0.00337944 6.5e+07 0.266283 0.0361118 2.94258 0.258473 0.237359 0.0015239 0 0 963363 3225.35 3.66078e+07 122554 0.983492 5.08551e-05 338.62 12.3954 13966.5 46.8465 8864.83 46.6173 14517.4 220.393 37348.7 219.962 0.0244433 0.000145133 999.703 0.285954 1.48485 0.783203 7.97905 0
39 3.63849e+07 115301 0.985866 0.00341768 6.5e+07 0.274533 0.0360361 3.01502 0.227013 0.24152 0.00157734 0 0 932915 2950.57 3.63837e+07 115069 0.983954 4.75841e-05 343.687 12.9517 13880.9 43.9089 8950.84 43.7434 14229.6 206.111 37061.4 205.555 0.0241151 0.000136329 999.758 0.280812 1.31313 0.747338 8.21533 0
40 3.61669e+07 118111 0.984867 0.00328089 6.5e+07 0.283024 0.0353822 3.075 0.239106 0.245073 0.00148954 0 0 904146 2947.26 3.61658e+07 117889 0.984389 4.38386e-05 349.438 10.8642 13797.8 45.1171 9034.48 44.9777 14032.9 196.875 36865.2 196.495 0.0237429 0.000134285 999.799 0.272205 1.26263 0.732863 8.45414 0
41 3.59519e+07 121227 0.98502 0.00326551 6.5e+07 0.291324 0.0406895 3.09805 0.243999 0.248691 0.00161721 0 0 876853 2955.89 3.5951e+07 121191 0.984804 4.80565e-05 354.002 12.2033 13715.8 46.2487 9117.05 46.0756 13828.3 220.265 36661.2 219.899 0.0233909 0.000135925 999.775 0.27503 1.23232 0.64867 8.69601 0
42 3.57724e+07 111538 0.985112 0.00352329 6.5e+07 0.299493 0.0393717 3.07191 0.229148 0.251943 0.00154477 0 0 851697 2659.38 3.57713e+07 111696 0.985185 4.17561e-05 358.68 12.7495 13647.2 42.553 9185.86 42.3954 13627.9 223.613 36461 223.149 0.0230508 0.000137859 999.771 0.257849 1.21212 0.670786 8.92618 0
43 3.55599e+07 110569 0.984781 0.00315981 6.5e+07 0.308065 0.0328926 3.02302 0.229947 0.255613 0.00154025 0 0 826951 2571 3.55589e+07 110553 0.98556 3.92567e-05 363.313 11.143 13566.3 42.1684 9267.25 42.0241 13422.3 208.286 36255.8 207.852 0.0227335 0.000133265 999.772 0.254604 1.33333 0.603023 9.16833 0
44 3.53818e+07 110211 0.983414 0.00345614 6.5e+07 0.316799 0.0442525 3.08242 0.251313 0.259139 0.00167883 0 0 804109 2501.64 3.53808e+07 110076 0.985908 3.93347e-05 365.495 10.5109 13498.3 42.0025 9335.74 41.997 13192.9 194.837 36026.9 194.407 0.0224522 0.000126624 999.794 0.238189 1.29293 0.670482 9.41545 0
45 3.51747e+07 100951 0.983695 0.00287021 6.5e+07 0.325184 0.0366057 3.05612 0.222095 0.262275 0.00150722 0 0 781631 2245.16 3.51734e+07 101033 0.986243 3.48646e-05 373.822 10.736 13419.2 38.5942 9415.01 38.4628 13063.9 178.471 35898.2 178.102 0.0221092 0.000118221 999.801 0.237872 1.14141 0.568715 9.65337 0
46 3.49913e+07 137793 0.983636 0.00284087 6.5e+07 0.333514 0.04623 3.10518 0.214511 0.265456 0.00173689 0 0 760657 2998.97 3.49902e+07 137947 0.986559 4.59578e-05 379.383 11.8029 13349.2 52.5701 9485.44 52.5175 12898.7 184.125 35733.3 183.841 0.0218189 0.000112646 999.809 0.215663 1.17172 0.651965 9.89087 0
47 3.48217e+07 99392.9 0.983381 0.0035176 6.5e+07 0.341961 0.0408386 3.09908 0.270303 0.268782 0.0013428 0 0 740865 2115.76 3.48206e+07 99440 0.98686 3.0963e-05 382.226 11.7648 13284.5 37.8507 9550.57 37.8143 12698.2 164.728 35533.2 164.39 0.0215605 9.57951e-05 999.808 0.220749 1.09091 0.726009 10.1259 0
48 3.46298e+07 114662 0.982985 0.00347128 6.5e+07 0.350719 0.0495971 3.15109 0.214622 0.272197 0.00158503 0 0 721435 2384.06 3.46289e+07 114430 0.987155 3.9071e-05 385.172 10.217 13211.4 43.7278 9623.97 43.6083 12522 195.694 35357.4 195.393 0.0212927 0.000119065 999.803 0.228984 1.23232 0.632907 10.3752 0
49 3.44463e+07 122526 0.982675 0.00368628 6.5e+07 0.359355 0.0537179 3.14141 0.218618 0.275368 0.00170527 0 0 702966 2504.3 3.44453e+07 122714 0.987431 3.91501e-05 391.593 11.1902 13141.3 46.7032 9694.45 46.5566 12370.5 193.79 35206.2 193.42 0.0210249 0.00012033 999.777 0.224578 1.12121 0.655555 10.6137 0
50 3.42712e+07 112472 0.982451 0.00326401 6.5e+07 0.367975 0.0464727 3.16303 0.216592 0.278632 0.00140874 0 0 685401 2253.85 3.427e+07 112690 0.987697 3.47136e-05 394.906 9.6877 13074.4 42.7919 9761.62 42.6481 12198.6 175.618 35034.6 175.166 0.0207847 0.000107128 999.803 0.236347 1.0101 0.703454 10.8557 0
51 3.40863e+07 109094 0.982623 0.00324479 6.5e+07 0.376714 0.0463514 3.14458 0.202655 0.281903 0.00145591 0 0 668334 2139.43 3.4085e+07 109107 0.987954 3.49907e-05 399.148 10.4959 13003.9 41.6246 9832.41 41.4926 12043 177.363 34879.4 176.94 0.0205536 0.00010729 999.824 0.21951 1.09091 0.604544 11.0939 0
52 3.3924e+07 123283 0.982215 0.0035383 6.5e+07 0.385497 0.049363 3.15132 0.197438 0.284988 0.00153334 0 0 652362 2376.74 3.39228e+07 123588 0.988197 3.55064e-05 401.74 10.0602 12942 46.9917 9894.72 46.8048 11883.6 172.617 34720.3 172.364 0.0203176 9.82919e-05 999.843 0.203209 1.07071 0.62365 11.3352 0
53 3.37418e+07 120614 0.981823 0.00355048 6.5e+07 0.394351 0.0470642 3.16791 0.223401 0.287805 0.00151336 0 0 636625 2273.42 3.37411e+07 120491 0.988433 3.11983e-05 406.474 11.6478 12872.5 46.0106 9964.43 45.8925 11785.8 166.592 34622.7 166.147 0.0200619 9.82684e-05 999.84 0.20309 1.0101 0.65897 11.579 0
54 3.3585e+07 110943 0.981775 0.0036205 6.5e+07 0.402918 0.0488961 3.18631 0.178456 0.29122 0.00157406 0 0 621928 2054.3 3.35841e+07 110928 0.988653 3.03593e-05 411.259 9.96518 12812.7 42.3134 10024.6 42.177 11586.2 168.796 34423.5 168.369 0.0198736 0.000101422 999.853 0.200307 1.0404 0.680451 11.8208 0
55 3.34224e+07 110517 0.98195 0.00360281 6.5e+07 0.411611 0.0534623 3.19302 0.212691 0.294297 0.0016247 0 0 607664 2010.44 3.34215e+07 110576 0.988871 3.07923e-05 412.868 9.83516 12750.5 42.2358 10087.1 42.1743 11438.2 146.273 34275.7 145.879 0.0196652 8.76918e-05 999.811 0.201902 0.878788 0.623978 12.0546 0
56 3.32545e+07 122425 0.981502 0.00364068 6.5e+07 0.420695 0.0556267 3.1903 0.220832 0.297275 0.00156089 0 0 593807 2190.75 3.32532e+07 122684 0.98908 3.21798e-05 415.504 9.94915 12686.6 46.6905 10151.3 46.5073 11310.5 181.208 34148.3 180.861 0.0194527 0.0001001 999.818 0.195271 1.0303 0.642824 12.3047 0
57 3.31114e+07 104683 0.980722 0.00337247 6.5e+07 0.429498 0.0497378 3.20361 0.195437 0.300092 0.00152988 0 0 580879 1835.11 3.31101e+07 104599 0.989274 2.84978e-05 419.641 9.2311 12631.9 39.7548 10206.2 39.6132 11172.5 151.029 34010.6 150.642 0.0192547 8.95343e-05 999.829 0.194891 0.979798 0.635321 12.54 0
58 3.29588e+07 119370 0.980433 0.00379713 6.5e+07 0.438349 0.0623685 3.22779 0.190379 0.302922 0.00168755 0 0 568238 2057.66 3.29578e+07 119343 0.989464 3.35536e-05 423.39 9.33372 12573.7 45.5963 10264.7 45.58 11047.7 171.03 33886.2 170.71 0.0190522 9.47822e-05 999.864 0.188626 1.0101 0.577262 12.7869 0
59 3.27811e+07 113841 0.980671 0.00403277 6.5e+07 0.447441 0.0654067 3.21383 0.188702 0.305724 0.00147813 0 0 555596 1933.65 3.27802e+07 114084 0.989655 3.1062e-05 426.382 9.31091 12505.9 43.5593 10332.7 43.4839 10959.3 151.261 33797.9 150.999 0.0188416 8.51792e-05 999.859 0.173761 0.919192 0.630484 13.0326 0
60 3.26349e+07 118946 0.980304 0.00378882 6.5e+07 0.45642 0.0623849 3.23737 0.22676 0.308865 0.00153444 0 0 543897 1979.4 3.26338e+07 118767 0.989832 2.97886e-05 428.676 11.3114 12450.2 45.3987 10388.7 45.2536 10796.7 158.236 33635.6 157.856 0.0186928 8.81328e-05 999.859 0.174489 1 0.568535 13.2758 0
61 3.24633e+07 105656 0.980484 0.00374656 6.5e+07 0.465482 0.0547618 3.19722 0.216362 0.311915 0.00151148 0 0 532164 1732.44 3.2462e+07 105678 0.990007 2.80412e-05 432.421 9.67368 12384.7 40.235 10454.5 40.1782 10678.4 156.68 33517.6 156.384 0.0185089 8.65854e-05 999.847 0.192037 0.919192 0.544518 13.5177 0
62 3.23193e+07 113526 0.98008 0.00372719 6.5e+07 0.474246 0.0629426 3.22988 0.195417 0.314425 0.00142225 0 0 521261 1833.55 3.23182e+07 113682 0.990169 2.59352e-05 437.558 9.22691 12329.7 43.3628 10509.6 43.3047 10586 155.178 33425.4 154.876 0.0183242 7.8274e-05 999.836 0.183293 0.919192 0.580435 13.7566 0
63 3.21789e+07 103740 0.980115 0.00319124 6.5e+07 0.483038 0.0594845 3.25188 0.193993 0.317176 0.00148625 0 0 510756 1645.98 3.21776e+07 103693 0.990327 2.5853e-05 440.396 9.64969 12276.2 39.5787 10563.5 39.4304 10465.5 141.226 33305.2 140.938 0.0181412 7.92545e-05 999.825 0.186982 0.959596 0.530279 13.9881 0
64 3.20455e+07 115804 0.979415 0.00364072 6.5e+07 0.492222 0.0589196 3.24526 0.20708 0.320037 0.00157971 0 0 500697 1808.19 3.20446e+07 115722 0.99048 2.75088e-05 441.758 9.63825 12225.3 44.1984 10614.5 44.1767 10327.4 162.915 33167.2 162.587 0.0179931 8.62756e-05 999.859 0.174815 0.89899 0.55949 14.2328 0
65 3.18706e+07 104523 0.978417 0.00349915 6.5e+07 0.501779 0.0607738 3.26946 0.224423 0.323009 0.00156302 0 0 490297 1611.56 3.18693e+07 104756 0.990633 2.46387e-05 446.921 9.2869 12158.6 39.9606 10681.6 39.912 10229.3 140.597 33069.4 140.312 0.0178343 8.08924e-05 999.868 0.164042 0.909091 0.604544 14.4887 0
66 3.17489e+07 106354 0.979141 0.00378566 6.5e+07 0.510373 0.0697685 3.27472 0.2094 0.325766 0.00160128 0 0 481026 1611.16 3.17477e+07 106333 0.990774 2.63427e-05 448.108 8.47477 12112.1 40.66 10728.3 40.5979 10092.5 147.032 32932.9 146.737 0.017688 8.27323e-05 999.874 0.169598 0.89899 0.577262 14.7162 0
67 3.16009e+07 112649 0.978128 0.00358952 6.5e+07 0.519935 0.0609488 3.26052 0.232449 0.328637 0.00165889 0 0 471640 1681.32 3.15999e+07 112651 0.990916 2.52531e-05 450.528 8.70841 12055.7 42.8802 10784.8 42.685 9976.81 161.017 32817.3 160.646 0.0175465 8.98012e-05 999.858 0.16424 0.949495 0.59244 14.9679 0
68 3.14559e+07 114710 0.978941 0.00373224 6.5e+07 0.528606 0.0644806 3.29397 0.192633 0.331146 0.00156676 0 0 462573 1689.91 3.14549e+07 114915 0.991052 2.30365e-05 453.286 8.71888 12000.4 43.7291 10840.4 43.604 9895.63 145.25 32736.4 144.902 0.0173864 8.20638e-05 999.897 0.140955 0.929293 0.590369 15.2001 0
69 3.12988e+07 113149 0.978169 0.00341357 6.5e+07 0.538482 0.0693463 3.26834 0.202305 0.334041 0.00146425 0 0 453594 1638.35 3.1298e+07 113051 0.991186 2.48148e-05 456.315 9.71344 11940.4 43.1354 10900.6 42.9583 9791.84 135.11 32632.8 134.791 0.0172377 7.3045e-05 999.859 0.15125 0.858586 0.603192 15.4569 0
70 3.1177e+07 105198 0.978952 0.00343945 6.5e+07 0.54683 0.0608861 3.30274 0.196367 0.336732 0.0016212 0 0 445369 1503.67 3.11758e+07 105258 0.991308 2.17487e-05 460.084 8.07426 11894 40.2125 10947.3 40.0884 9669.6 133.973 32510.9 133.632 0.0171064 7.19824e-05 999.895 0.139514 0.919192 0.525641 15.6724 0
