#1-sta 2-avgThroughput 3-stdThroughput 4-JFI 5-stdJFI 6-Bandwidth 7-avgDelay 8-stdDelay 9-avgBackoffStage 10-stdBackoffStage 11-totalFractionOfCollisionSlots 12.stdCollidingSlots 13.avgThroughputDCF 14. stdThroughputDCF 15.avgThroughputECA 16.stdThroughputECA 17.Sum of 15 and 16 18. std of 17 19. AvgBlockingProb 20. StdBlockingProb 21. AvgDroppedPackets 22.StdDropped 23.SxSlots 24.stdSxSlots 25.ColSlots 26.StdColSlots 27.EmptySlots 28.stdEmpty 29.totalSlots 30.stdTotalSlots 31.averageTAU 32.stdTAU 33.avgQSize 34.stdQSize 35.avgQEmpty 36.stdQEmpty 37. avgQDelay 38. stdQDelay
2 2.99081e+07 1.73412e+06 1 0 6.5e+07 0.000576363 0.0261144 0.0606061 0.238606 3.37875e-08 1.33022e-07 0 0 1.4954e+07 867048 2.9908e+07 1.7341e+06 0.768671 0.0133535 0 0 351500 32330.5 0.0606061 0.238606 1.10887e+06 117007 1.46037e+06 84676.5 0.121211 0.0149127 999.717 0.34202 0.10101 0.33318 0.547241 0
3 3.87341e+07 82226.4 0.999433 7.78839e-05 6.5e+07 0.0138802 0.00138364 3.3367 0.0333323 0.000924114 2.30703e-05 1.33409e+07 14486 1.26961e+07 40736.6 3.87331e+07 82355.8 0.800109 0.000427148 0 0 172603 176.848 1299.12 32.2986 1.2319e+06 1533.01 1.40581e+06 1635.56 0.0415423 3.51748e-05 998.088 3.10086 0.0808081 0.27254 0.630922 0
4 4.15035e+07 90382.7 0.999609 5.92559e-05 6.5e+07 0.0192201 0.00174174 3.75 0 0.00138299 3.12251e-05 1.07231e+07 14340.5 1.02597e+07 29551.7 4.15022e+07 90498.6 0.839114 0.000346843 0 0 142721 183.727 1572.28 35.5201 992583 996.162 1.13688e+06 1066.8 0.0320762 3.20741e-05 998.043 2.50152 0.111111 0.344917 0.784533 0
5 4.33704e+07 88624.2 0.999745 4.26065e-05 6.5e+07 0.0243474 0.00196474 4.00606 0.0342839 0.00185121 3.73096e-05 8.93247e+06 12691.7 8.60912e+06 21310.9 4.33689e+07 88873.2 0.8653 0.000293645 0 0 122281 163.123 1766.99 35.4037 830462 998.614 954510 1051.6 0.0263628 2.97447e-05 998.76 2.04554 0.131313 0.337742 0.93786 0
6 4.47389e+07 100421 0.999845 3.69675e-05 6.5e+07 0.0293508 0.00247459 4.17509 0.0364961 0.00230999 4.7333e-05 7.63601e+06 13296.2 7.42026e+06 19642.2 4.47373e+07 100511 0.884029 0.000260761 0.00168351 0.0166658 107495 167.812 1901 39.2485 713549 974.932 822945 1030.08 0.0225412 2.85596e-05 998.588 1.69543 0.111111 0.344917 1.09025 0
7 3.97913e+07 108850 0.997491 0.000223382 6.5e+07 0.0321938 0.00364458 3.65224 0.134933 0.0147191 0.000103889 5.24006e+06 13329.8 5.86195e+06 22786.7 3.97899e+07 108823 0.911288 0.000240963 1.10534 2.30883 139179 313.522 10514.3 79.7257 564630 1077.38 714324 1048.07 0.0320728 6.14847e-05 998.96 1.45223 0.141414 0.348448 1.43188 0
8 4.07366e+07 130848 0.997433 0.000242853 6.5e+07 0.0377162 0.00478578 3.81692 0.107063 0.0153411 0.000103825 4.65203e+06 13391.1 5.23851e+06 22584.7 4.07351e+07 130835 0.920402 0.000253325 1.1351 2.17696 125645 314.998 9799.83 74.286 503348 1109.04 638793 1101.66 0.0284563 6.4304e-05 999.047 1.34648 0.161616 0.394586 1.59738 0
9 4.14634e+07 126532 0.997367 0.000195449 6.5e+07 0.0432275 0.00515748 3.9697 0.11258 0.0159981 0.000118071 4.17249e+06 11296.8 4.73096e+06 18063.9 4.14617e+07 126559 0.927864 0.000216895 0.857464 1.86641 114589 280.627 9241.86 72.9523 453853 813.967 577684 822.778 0.0256311 4.5735e-05 999.097 1.10181 0.131313 0.366431 1.76441 0
10 4.20927e+07 133062 0.997289 0.000217495 6.5e+07 0.0486593 0.00581947 4.0697 0.109595 0.0166188 0.000124342 3.7807e+06 12784.4 4.31623e+06 17284.1 4.20912e+07 133038 0.933984 0.00020453 0.778788 1.46868 105571 299.322 8765.79 67.5118 413126 668.852 527463 692.586 0.023376 4.59594e-05 999.18 1.03903 0.121212 0.383306 1.92962 0
11 3.888e+07 137701 0.988194 0.000582252 6.5e+07 0.0510334 0.00691143 3.81359 0.155258 0.0305534 0.0001528 2.90872e+06 10166.5 3.76905e+06 18493.8 3.88786e+07 137645 0.944361 0.000192467 3.11846 3.03824 118093 350.038 15109.1 78.8904 361312 885.099 494514 834.148 0.027409 7.74523e-05 999.283 0.955164 0.171717 0.403029 2.31778 0
12 3.93854e+07 124568 0.988381 0.00045965 6.5e+07 0.0568002 0.00708243 3.89394 0.136504 0.0312465 0.00017282 2.67103e+06 8673.29 3.48565e+06 14172.5 3.93839e+07 124681 0.948243 0.000159935 3.64899 2.95142 109859 309.096 14302.1 82.8187 333559 915.149 457720 896.255 0.0253487 6.70236e-05 999.347 0.878877 0.141414 0.348448 2.49372 0
13 3.98331e+07 156768 0.988563 0.000485118 6.5e+07 0.0625417 0.00932261 3.98446 0.127964 0.0318707 0.000183871 2.46781e+06 9184.22 3.2428e+06 15837.5 3.98315e+07 156618 0.951598 0.00018557 2.82517 2.98707 102822 336.045 13574.4 81.6624 309525 789.808 425921 740.435 0.0236098 6.61873e-05 999.515 0.751385 0.131313 0.366431 2.66867 0
14 4.02221e+07 137941 0.988594 0.000500135 6.5e+07 0.0682175 0.00849018 4.07864 0.13715 0.0325306 0.000174768 2.28845e+06 8962.58 3.03228e+06 13165.4 4.02205e+07 137739 0.954538 0.000149613 3.07576 2.60677 96615.7 314.747 12956.3 73.3502 288708 852.608 398280 821.507 0.0221066 7.15399e-05 999.395 0.763383 0.0909091 0.28748 2.84403 0
15 3.79083e+07 159453 0.975496 0.00080103 6.5e+07 0.0701888 0.0112494 3.89764 0.165298 0.0455597 0.000237201 1.86695e+06 7249.77 2.76721e+06 15032.9 3.79071e+07 159563 0.959852 0.000162377 7.15421 4.0273 102842 341.748 17519.6 88.7848 264181 808.116 384542 818.405 0.0241483 7.27473e-05 999.457 0.690789 0.0909091 0.28748 3.2796 0
16 3.8211e+07 161277 0.976045 0.000820435 6.5e+07 0.0762131 0.0117038 3.96528 0.142749 0.0462463 0.000258805 1.74474e+06 7499.15 2.60256e+06 14040.7 3.82097e+07 161173 0.961991 0.000153825 7.18371 3.64167 97180.6 350.746 16741.9 93.3803 248093 760.873 362016 677.457 0.0227947 7.96595e-05 999.525 0.663359 0.151515 0.35855 3.46612 0
17 3.84756e+07 156648 0.976541 0.00083503 6.5e+07 0.0822228 0.0116603 4.03446 0.143116 0.0470008 0.000258517 1.63577e+06 7860.86 2.45624e+06 12871.9 3.84742e+07 156551 0.963913 0.000142714 6.86928 3.31721 92131.3 362.501 16082.4 81.8353 233960 830.459 342173 713.11 0.0215976 8.69037e-05 999.507 0.650994 0.181818 0.41105 3.65298 0
18 3.87408e+07 166881 0.977091 0.000754495 6.5e+07 0.0882001 0.0132342 4.11392 0.131746 0.0475856 0.000261832 1.54087e+06 6558.5 2.32683e+06 12501 3.87391e+07 166891 0.965621 0.000142008 6.66835 3.035 87744.7 300.43 15434.8 84.4326 221180 725.632 324359 681.401 0.0205395 7.2751e-05 999.507 0.575003 0.10101 0.301342 3.83605 0
19 3.7e+07 179323 0.962104 0.00114083 6.5e+07 0.0897795 0.0148122 3.95906 0.138253 0.0593751 0.000343827 1.30431e+06 6272.31 2.17693e+06 13695.4 3.69986e+07 179321 0.968767 0.000144775 11.361 4.14547 91305.6 354.109 18833.4 110.636 207056 728.793 317195 677.183 0.0217233 8.65611e-05 999.592 0.562321 0.040404 0.196905 4.31689 0
20 3.7231e+07 154026 0.962968 0.000945814 6.5e+07 0.0959564 0.0132391 4.06818 0.155773 0.0600091 0.000318166 1.23324e+06 5087.02 2.0709e+06 11031.8 3.72297e+07 153984 0.970087 0.000117833 11.7778 4.20385 87191.6 284.216 18131.6 96.1132 196825 679.961 302148 620.39 0.0207438 7.31023e-05 999.608 0.531168 0.111111 0.344917 4.50857 0
21 3.7419e+07 170546 0.963718 0.00107113 6.5e+07 0.102146 0.0161184 4.12025 0.12468 0.0606923 0.000364578 1.16757e+06 6437.07 1.97373e+06 11368.1 3.74175e+07 170744 0.971312 0.000122956 12.3776 3.92361 83384.2 366.601 17488.9 101.018 187285 677.051 288158 509.704 0.0198647 9.03515e-05 999.608 0.525921 0.10101 0.301342 4.7033 0
22 3.76374e+07 158929 0.96436 0.000959856 6.5e+07 0.108155 0.0151208 4.15197 0.116321 0.06139 0.00039128 1.1087e+06 5539 1.8878e+06 10029.5 3.76361e+07 158985 0.972407 0.000110839 11.4587 4.01838 79995.7 312.313 16918.9 108.951 178683 618.644 275597 597.792 0.0190726 7.09338e-05 999.597 0.489518 0.171717 0.403029 4.89274 0
23 3.61836e+07 174530 0.949223 0.00112416 6.5e+07 0.109791 0.0176226 4.0448 0.144062 0.0720744 0.000425732 964456 4428.65 1.78798e+06 10773.8 3.61824e+07 174376 0.974517 0.000114526 16.7079 4.6771 82304.7 304.315 19570.2 113.775 169653 640.81 271528 546.035 0.0198332 7.97258e-05 999.648 0.472576 0.171717 0.403029 5.42438 0
24 3.63485e+07 166575 0.950229 0.00108581 6.5e+07 0.116104 0.0172353 4.10143 0.126902 0.0727291 0.000415097 918090 4531.78 1.71326e+06 9804.88 3.63473e+07 166665 0.975419 0.000106088 16.5568 3.98671 79082.6 308.558 18935.9 111.8 162344 633.294 260363 573.406 0.0190931 7.74122e-05 999.707 0.421391 0.181818 0.385695 5.62472 0
25 3.64889e+07 171323 0.951282 0.00115783 6.5e+07 0.122509 0.0194683 4.15232 0.119619 0.0733476 0.000479017 875785 4957.93 1.64383e+06 9528.44 3.64875e+07 171299 0.976265 0.000106201 16.684 4.156 76134.8 339.848 18339.2 113.283 155559 659.759 250033 601.504 0.0184146 8.10135e-05 999.664 0.43141 0.121212 0.326374 5.82597 0
26 3.66993e+07 156177 0.951847 0.000987913 6.5e+07 0.128593 0.0178417 4.19075 0.127495 0.0738906 0.000462823 836096 4109.07 1.58407e+06 8226.36 3.66979e+07 156443 0.977005 9.16184e-05 15.5622 4.25413 73399.5 282.748 17785.1 115.462 149511 597.191 240696 513.22 0.0177703 7.23599e-05 999.666 0.41305 0.111111 0.31427 6.01849 0
27 3.54589e+07 162747 0.937127 0.00119783 6.5e+07 0.130219 0.0190213 4.11336 0.145108 0.0838166 0.00045345 741873 3759.78 1.51322e+06 8694.77 3.54575e+07 162650 0.978508 9.20031e-05 22.064 4.51506 75003 294.103 19951.4 100.713 143083 626.599 238037 548.157 0.0183153 7.83788e-05 999.724 0.352508 0.0909091 0.28748 6.59727 0
28 3.55852e+07 177979 0.93831 0.00114739 6.5e+07 0.136703 0.0231061 4.1627 0.117328 0.084424 0.000542368 710236 3719.33 1.45772e+06 8836.39 3.55837e+07 178086 0.97916 9.60453e-05 21.7832 5.00295 72436.4 298.4 19376.4 124.967 137700 609.203 229513 531.456 0.0177278 7.89617e-05 999.785 0.340534 0.171717 0.377134 6.80462 0
29 3.57037e+07 187194 0.939652 0.00123972 6.5e+07 0.14323 0.0238402 4.22013 0.121219 0.0851373 0.00051593 681912 3668.53 1.40586e+06 9051.09 3.57023e+07 187091 0.979773 9.85526e-05 20.5273 4.63682 70140.1 280.802 18868.7 111.974 132619 543.713 221628 509.33 0.017203 7.19478e-05 999.731 0.351891 0.10101 0.301342 7.00794 0
30 3.5867e+07 197656 0.940387 0.00123479 6.5e+07 0.149443 0.0259395 4.23064 0.116117 0.0856529 0.000517556 653923 3605.39 1.36035e+06 9019.19 3.58655e+07 197678 0.98032 9.93299e-05 21.3717 4.78113 67888.1 281.422 18353 115.15 128031 516.963 214272 515.377 0.0166792 6.33783e-05 999.742 0.333079 0.0909091 0.320697 7.20787 0
31 3.47668e+07 147952 0.926257 0.00113026 6.5e+07 0.151137 0.021602 4.16096 0.124175 0.0949142 0.000452319 588433 3018.89 1.30687e+06 6791.68 3.47655e+07 147940 0.981452 7.2519e-05 27.5034 5.31612 68999.9 278.892 20170.5 94.4201 123344 535.254 212514 492.681 0.0170735 6.62641e-05 999.739 0.35016 0.111111 0.344917 7.83594 0
32 3.4906e+07 187315 0.927475 0.00139633 6.5e+07 0.157592 0.0258717 4.17898 0.131748 0.0953601 0.000563575 566068 3141.17 1.26566e+06 8363.87 3.49045e+07 187383 0.981925 8.9237e-05 26.8052 4.67277 66939.5 270.05 19630 116.83 119282 466.307 205852 427.048 0.0165877 6.91356e-05 999.689 0.346593 0.151515 0.385695 8.0421 0
33 3.50038e+07 185132 0.928703 0.00112639 6.5e+07 0.164268 0.0276767 4.23569 0.116893 0.0961107 0.000630556 545030 2618.32 1.22569e+06 7634.84 3.50024e+07 185183 0.982389 8.58192e-05 25.8815 4.73712 64986.5 241.182 19173.3 115.488 115333 507.29 199493 441.475 0.0161554 6.70499e-05 999.734 0.326415 0.151515 0.385695 8.25208 0
34 3.51074e+07 150626 0.929818 0.00113148 6.5e+07 0.170828 0.0215929 4.26441 0.117163 0.096593 0.000563026 525098 2918.21 1.18866e+06 6250.68 3.5106e+07 150535 0.982822 6.65883e-05 26.2305 4.63018 63140.8 253.074 18703.7 110.078 111790 454.715 193634 405.684 0.0157236 6.40461e-05 999.81 0.290418 0.0808081 0.27254 8.46107 0
35 3.41921e+07 177136 0.916173 0.00138448 6.5e+07 0.172228 0.0284583 4.22742 0.1118 0.105028 0.00056639 478063 2961.08 1.14954e+06 7304.31 3.41907e+07 177027 0.98367 7.55458e-05 32.3276 5.51551 63991.5 293.543 20205.8 107.839 108187 562.974 192385 487.452 0.016016 7.29212e-05 999.746 0.299176 0.111111 0.31427 9.11828 0
36 3.42594e+07 202979 0.917548 0.00144687 6.5e+07 0.179055 0.0326999 4.22699 0.128969 0.105687 0.000564832 461174 3153.03 1.11509e+06 7906.64 3.42579e+07 202997 0.984058 8.4216e-05 33.0185 5.09842 62221.7 321.821 19750.1 109.917 104902 535.124 186874 450.522 0.0156227 7.46278e-05 999.86 0.233863 0.141414 0.348448 9.33799 0
37 3.43771e+07 178984 0.918723 0.00118728 6.5e+07 0.185649 0.0343572 4.24515 0.127884 0.106362 0.000683388 445387 2603.33 1.08455e+06 6588.51 3.4376e+07 178974 0.984407 7.18581e-05 31.1097 4.77238 60586.7 274.724 19324.4 115.634 101775 522.796 181686 429.418 0.0152571 7.1879e-05 999.83 0.276507 0.0909091 0.28748 9.545 0
38 3.44418e+07 198884 0.919958 0.0012203 6.5e+07 0.192422 0.0350429 4.26768 0.121204 0.107062 0.000575989 430290 2521.19 1.05406e+06 7135.01 3.44405e+07 198731 0.984756 7.90899e-05 32.3477 5.30976 59007.4 256.517 18932.6 101.363 98897.6 413.996 176838 391.374 0.0149023 5.67953e-05 999.786 0.260912 0.0707071 0.256335 9.76402 0
39 3.3611e+07 180291 0.907094 0.00121605 6.5e+07 0.193982 0.0357673 4.26677 0.115875 0.114959 0.000698667 395523 2205.66 1.02257e+06 6450.21 3.36097e+07 180393 0.985435 7.11908e-05 37.1414 4.83224 59662.2 251.38 20230.8 118.345 96090.9 446.764 175984 467.517 0.0151295 5.82945e-05 999.786 0.265266 0.151515 0.385695 10.4579 0
40 3.36955e+07 178942 0.90857 0.00117817 6.5e+07 0.200817 0.0372495 4.26338 0.0962893 0.115657 0.000688801 383106 2227.56 995435 6139.17 3.36941e+07 178961 0.985734 6.60469e-05 36.6386 4.70059 58227.1 259.387 19821.9 118.098 93337.2 459.094 171386 406.044 0.0148095 6.3048e-05 999.844 0.240694 0.111111 0.31427 10.6729 0
41 3.37786e+07 181150 0.909751 0.00141125 6.5e+07 0.207614 0.0341837 4.30722 0.0897937 0.11627 0.000778163 370721 2572.61 969999 6221.71 3.37772e+07 181290 0.986019 6.65109e-05 36.7812 5.24943 56793.5 285.199 19423.2 135.272 90836.1 465.987 167053 353.896 0.0144877 7.38296e-05 999.827 0.249598 0.111111 0.31427 10.8892 0
42 3.38497e+07 194643 0.911036 0.00130194 6.5e+07 0.214396 0.0372848 4.29798 0.0938046 0.116849 0.000774604 359062 2285.98 945556 6397.1 3.38484e+07 194720 0.986296 6.73369e-05 35.6294 5.96626 55446 248.602 19038.3 125.88 88447.8 466.227 162932 417.668 0.0141818 6.83069e-05 999.848 0.222871 0.222222 0.41574 11.1045 0
43 3.31007e+07 159415 0.898995 0.00126167 6.5e+07 0.215946 0.0360868 4.28377 0.115548 0.124273 0.000645405 333007 2077.7 919891 5226.42 3.30996e+07 159260 0.986844 5.53795e-05 42.3016 5.29238 56012.7 260.484 20176.4 104.156 86167.1 459.01 162356 415.034 0.014369 6.2025e-05 999.816 0.249837 0.111111 0.344917 11.8257 0
44 3.31585e+07 176537 0.90036 0.00119183 6.5e+07 0.222932 0.0425378 4.31772 0.118027 0.125046 0.000681628 322872 1968.15 897138 5505.86 3.31572e+07 176732 0.987093 5.96027e-05 42.4022 5.01083 54718.3 252.318 19821.1 112.976 83972.1 391.306 158512 374.954 0.0140892 5.92963e-05 999.845 0.232105 0.0606061 0.238606 12.046 0
45 3.31861e+07 177013 0.901907 0.00107991 6.5e+07 0.230238 0.0400002 4.33064 0.111906 0.125753 0.000753042 313510 1768.21 874596 5356.08 3.31849e+07 177067 0.987343 5.88294e-05 41.0132 5.06658 53511.3 225.149 19470 117.885 81846.5 391.854 154828 376.357 0.0138192 5.49258e-05 999.848 0.224743 0.131313 0.337742 12.2711 0
46 3.32905e+07 206680 0.903036 0.00129297 6.5e+07 0.23682 0.0439336 4.35222 0.094024 0.126227 0.000702614 304268 1990.15 855495 6138.59 3.32893e+07 206597 0.987553 6.7471e-05 41.7521 5.51626 52349.5 243.848 19104.5 116.855 79896.4 384.54 151350 350.14 0.0135505 5.6489e-05 999.829 0.228064 0.0808081 0.27254 12.4783 0
47 3.25767e+07 197886 0.891538 0.00147589 6.5e+07 0.238711 0.0428447 4.32452 0.107318 0.133414 0.000830136 283675 1881.03 833454 5927.66 3.2575e+07 197649 0.988019 6.31436e-05 45.6379 4.93141 52748.4 248.612 20134.5 125.75 78035.6 435.7 150918 398.888 0.0137029 6.36502e-05 999.858 0.205646 0.121212 0.326374 13.2387 0
48 3.26268e+07 202398 0.893007 0.00131357 6.5e+07 0.245867 0.0463317 4.33375 0.106558 0.13416 0.000877728 275801 1699.41 814333 5870.52 3.26256e+07 202605 0.988224 6.2989e-05 46.7763 5.68545 51650.3 222.112 19798 122.703 76123.2 447.051 147572 385.574 0.0134628 6.58872e-05 999.853 0.19298 0.10101 0.301342 13.4543 0
49 3.27248e+07 173628 0.894232 0.00113254 6.5e+07 0.252574 0.040588 4.33416 0.0885819 0.134725 0.000800479 268142 1516.38 797456 4882.58 3.27236e+07 173929 0.988409 5.36479e-05 44.9342 4.94175 50603.1 204.891 19459.3 124.867 74374.7 372.318 144437 362.568 0.0132226 5.24802e-05 999.842 0.199159 0.121212 0.326374 13.6637 0
50 3.27513e+07 184098 0.895749 0.00138315 6.5e+07 0.259835 0.0417129 4.36323 0.101452 0.135313 0.000765383 261019 1718.93 779414 5147.92 3.275e+07 184152 0.988605 5.4769e-05 46.1489 4.59029 49603.2 212.508 19138.8 117.85 72699.7 363.957 141442 361.466 0.0129943 5.66644e-05 999.843 0.203902 0.0707071 0.256335 13.8815 0
51 3.21306e+07 202042 0.884578 0.00134313 6.5e+07 0.261421 0.0474104 4.34541 0.101435 0.142209 0.000780124 244329 1512.1 761924 5563.63 3.21294e+07 202047 0.988983 5.85338e-05 51.1361 5.31871 49882.8 209.592 20063 118.786 71135.2 348.944 141081 333.737 0.0131194 5.36159e-05 999.865 0.187131 0.10101 0.301342 14.6581 0
52 3.21306e+07 223190 0.886393 0.00137561 6.5e+07 0.269045 0.052686 4.34305 0.098047 0.142921 0.000908379 238248 1474.51 744420 5962.92 3.21296e+07 223246 0.98917 6.39583e-05 50.893 4.76697 48949.6 205.454 19756.3 131.547 69527 402.828 138233 341.497 0.0129104 6.03933e-05 999.85 0.193101 0.0909091 0.28748 14.88 0
53 3.22128e+07 177967 0.887693 0.00123999 6.5e+07 0.275935 0.0458722 4.37526 0.0911364 0.143476 0.000894539 232162 1488.99 729835 4663.43 3.22115e+07 177778 0.989325 4.97853e-05 50.7869 5.19867 48046.2 209.04 19439.8 122.134 68005.9 368.013 135492 348.376 0.0127027 5.72432e-05 999.825 0.204159 0.111111 0.31427 15.0806 0
54 3.22811e+07 195522 0.888918 0.00118718 6.5e+07 0.282956 0.0463014 4.36906 0.0944358 0.144021 0.000772016 226017 1364.04 715654 5007.19 3.228e+07 195577 0.989481 5.4053e-05 49.1076 4.77503 47128.8 181.623 19136.3 110.827 66606.9 306.005 132872 321.744 0.0124936 4.52737e-05 999.853 0.217579 0.0909091 0.28748 15.296 0
55 3.16596e+07 207555 0.878581 0.00139344 6.5e+07 0.285014 0.0548741 4.37245 0.112031 0.15069 0.000927412 212738 1505.3 699506 5243.85 3.16581e+07 207316 0.989816 5.62277e-05 54.2112 5.20298 47362.4 236.875 19977.7 123.342 65235 369.285 132575 305.169 0.012605 5.98771e-05 999.839 0.198524 0.0808081 0.27254 16.0914 0
56 3.1729e+07 195576 0.879876 0.00136737 6.5e+07 0.292042 0.0465583 4.37085 0.0856904 0.151181 0.000811454 207362 1255.86 686301 4881.02 3.17277e+07 195384 0.989954 5.20946e-05 55.0123 5.05592 46498.4 182.483 19667.1 116.937 63924.4 348.42 130090 367.113 0.0124051 4.86443e-05 999.891 0.167614 0.0909091 0.28748 16.2984 0
57 3.173e+07 173503 0.881537 0.00119832 6.5e+07 0.299735 0.0537538 4.3748 0.0978055 0.151998 0.000774574 202562 1312.68 671927 4205.73 3.17287e+07 173564 0.990107 4.50267e-05 54.936 5.67461 45704.2 204.353 19412.4 106.234 62598.4 354.26 127715 327.738 0.0122259 5.05669e-05 999.87 0.175092 0.131313 0.337742 16.5108 0
58 3.17717e+07 202964 0.882823 0.00127016 6.5e+07 0.307029 0.0598012 4.40178 0.097269 0.152749 0.000939642 197631 1319.86 659179 4740.04 3.17707e+07 203105 0.990243 5.20116e-05 54.8304 5.26565 44906.1 211.341 19149.1 117.23 61308.3 398.965 125363 349.311 0.0120534 5.80379e-05 999.863 0.176625 0.121212 0.326374 16.7262 0
59 3.12216e+07 181329 0.872837 0.00127371 6.5e+07 0.308892 0.0557325 4.37973 0.10714 0.158751 0.000852108 186646 1267.2 645929 4269.91 3.12206e+07 181350 0.990524 4.4667e-05 58.9526 5.42756 45081.2 215.825 19867.4 117.692 60199.5 357.498 125148 349.668 0.0121329 5.17136e-05 999.866 0.182361 0.0909091 0.28748 17.5141 0
60 3.12443e+07 217744 0.874453 0.00143978 6.5e+07 0.316391 0.0551983 4.38923 0.0895276 0.159534 0.000799568 182317 1218.07 633516 5079.96 3.1243e+07 217899 0.990654 5.3427e-05 58.7956 5.3778 44323.3 181.07 19611.7 109.231 58996.2 309.385 122931 349.175 0.0119679 4.54706e-05 999.884 0.173039 0.0808081 0.27254 17.7261 0
61 3.13679e+07 192087 0.875375 0.00117431 6.5e+07 0.322839 0.0567305 4.40073 0.0949971 0.159887 0.000809333 177902 1077.55 623874 4317.06 3.13667e+07 191882 0.990754 4.43572e-05 58.9271 5.78954 43589 177.104 19316.2 111.028 57906.5 322.128 120812 307.375 0.0117901 4.47026e-05 999.882 0.163624 0.0808081 0.27254 17.9126 0
62 3.13487e+07 192479 0.877089 0.0013751 6.5e+07 0.330887 0.0585107 4.42066 0.0915183 0.160809 0.000838611 174139 1329.44 611391 4288.37 3.13475e+07 192302 0.990887 4.634e-05 58.8341 4.75756 42913.2 214.25 19107.9 108.171 56802.3 296.711 118823 289.954 0.0116398 4.97242e-05 999.871 0.169746 0.161616 0.368098 18.1267 0
63 3.08444e+07 195529 0.867441 0.00134295 6.5e+07 0.33261 0.0599924 4.39073 0.0895837 0.166737 0.000914492 164988 1200.29 600074 4338.13 3.08433e+07 195579 0.991128 4.43018e-05 63.1481 5.56349 43047.7 208.092 19773 115.864 55767.6 328.298 118588 332.08 0.011717 4.90532e-05 999.854 0.177226 0.0909091 0.28748 18.9077 0
64 3.08298e+07 208672 0.869275 0.00138968 6.5e+07 0.340721 0.0601643 4.40751 0.0918544 0.167603 0.000921323 161567 1228.31 588404 4530.51 3.08285e+07 208605 0.99125 4.75727e-05 62.6007 5.51005 42395 211.95 19552 113.319 54710.2 320.924 116657 318.878 0.0115747 5.07e-05 999.918 0.142186 0.131313 0.337742 19.1146 0
65 3.08944e+07 193192 0.870312 0.00130356 6.5e+07 0.347864 0.062637 4.41958 0.0843164 0.168136 0.000931746 157714 1057.61 578976 4067.11 3.08932e+07 193261 0.99135 4.26083e-05 61.5686 5.86459 41690.9 190.313 19296.1 121.783 53777.6 297.865 114765 302.128 0.0114101 4.48076e-05 999.913 0.142946 0.151515 0.35855 19.3109 0
66 3.09392e+07 197388 0.871653 0.00133893 6.5e+07 0.355234 0.0705215 4.43557 0.103847 0.168737 0.000959397 154390 1209.75 569356 4103.18 3.0938e+07 197265 0.991449 4.48023e-05 62.6356 4.54437 41079.4 214.426 19055.2 111.078 52794.3 313.177 112929 251.161 0.0112702 5.44035e-05 999.878 0.156262 0.131313 0.337742 19.5002 0
67 3.04385e+07 203596 0.862678 0.00142628 6.5e+07 0.357249 0.0698711 4.41218 0.0978085 0.174536 0.000916575 146756 1147.23 558849 4237.92 3.04373e+07 203626 0.991666 4.3103e-05 66.7482 5.73141 41177.5 211.55 19691 123.251 51950.5 284.824 112819 288.74 0.011334 4.58256e-05 999.887 0.158015 0.0909091 0.28748 20.2773 0
68 3.04237e+07 198603 0.864391 0.00140846 6.5e+07 0.36541 0.0663838 4.42097 0.0833353 0.175425 0.00103018 143830 1171.31 548570 4092.18 3.04222e+07 198575 0.991772 4.20055e-05 67.3151 5.52734 40583 211.547 19483 128.204 50995.3 299.569 111061 293.615 0.0112063 5.06061e-05 999.893 0.148219 0.0909091 0.28748 20.479 0
69 3.04608e+07 202357 0.865691 0.00141704 6.5e+07 0.37306 0.0626601 4.42966 0.0961408 0.176058 0.000954706 140906 1128.37 539694 4072.24 3.04595e+07 202052 0.991864 4.16154e-05 66.5692 5.10281 40008.9 200.34 19252 113.004 50089.6 331.105 109350 322.253 0.0110732 4.81994e-05 999.886 0.145727 0.0808081 0.27254 20.6524 0
70 3.05735e+07 220525 0.866668 0.00142135 6.5e+07 0.379666 0.0685141 4.44444 0.0934661 0.176605 0.000994424 137886 916.863 532607 4342.42 3.05722e+07 220379 0.991938 4.56713e-05 65.4318 5.72347 39444.8 151.322 19015 120.336 49210 301.22 107670 307.61 0.0109404 4.67026e-05 999.887 0.146647 0.0808081 0.27254 20.8142 0
