#1-sta 2-avgThroughput 3-stdThroughput 4-JFI 5-stdJFI 6-Bandwidth 7-avgDelay 8-stdDelay 9-avgBackoffStage 10-stdBackoffStage 11-totalFractionOfCollisionSlots 12.stdCollidingSlots 13.avgThroughputDCF 14. stdThroughputDCF 15.avgThroughputECA 16.stdThroughputECA 17.Sum of 15 and 16 18. std of 17 19. AvgBlockingProb 20. StdBlockingProb 21. AvgDroppedPackets 22.StdDropped 23.SxSlots 24.stdSxSlots 25.ColSlots 26.StdColSlots 27.EmptySlots 28.stdEmpty 29.totalSlots 30.stdTotalSlots 31.averageTAU 32.stdTAU 33.avgQSize 34.stdQSize 35.avgQEmpty 36.stdQEmpty 37. avgQDelay 38. stdQDelay
2 3.41162e+07 8090.72 0.998951 8.99996e-06 6.5e+07 0.00814392 0.000123683 2.5 0 0.000486556 2.82771e-06 1.76102e+07 3546.12 1.65049e+07 6350.27 3.4115e+07 9192.05 0.736312 0.0002327 0 0 221288 42.6951 896.758 5.02738 1.62089e+06 417.278 1.84308e+06 449.501 0.060519 8.23603e-06 997.348 4.94998 0.10101 0.33318 0.478049 0
3 3.87341e+07 82226.4 0.999433 7.78839e-05 6.5e+07 0.0138802 0.00138364 3.3367 0.0333323 0.000924114 2.30703e-05 1.33409e+07 14486 1.26961e+07 40736.6 3.87331e+07 82355.8 0.800109 0.000427148 0 0 172603 176.848 1299.12 32.2986 1.2319e+06 1533.01 1.40581e+06 1635.56 0.0415423 3.51748e-05 998.088 3.10086 0.0808081 0.27254 0.630922 0
4 3.48585e+07 102127 0.997947 0.000343789 6.5e+07 0.0148247 0.00245946 2.59596 0.209337 0.0128843 7.87131e-05 8.32219e+06 14853.8 9.10657e+06 58604.8 3.48575e+07 102204 0.86467 0.000402362 0.35101 1.6221 210156 337.037 14299.9 96.9967 885414 1446.02 1.10987e+06 1389.53 0.0538032 8.19916e-05 998.616 2.39694 0.111111 0.344917 0.935778 0
5 3.70331e+07 113906 0.997713 0.000265805 6.5e+07 0.0208023 0.00313433 3.07475 0.169577 0.0134778 8.59393e-05 6.97625e+06 14458.5 7.69315e+06 38752.7 3.7032e+07 113925 0.884797 0.000350251 0.674747 1.98654 179171 347.228 12624.8 90.0491 744909 1372.65 936704 1396.51 0.0436737 7.08025e-05 999.006 1.83269 0.121212 0.326374 1.1004 0
6 3.43449e+07 118201 0.987662 0.00078295 6.5e+07 0.0213081 0.00403638 2.78956 0.26228 0.0272442 0.000109435 5.08596e+06 10817.9 6.36203e+06 40894.1 3.4344e+07 118187 0.910675 0.000312104 3.1431 3.45859 193569 387.051 22704 98.5301 617077 1461.2 833350 1386.35 0.0479894 0.000104391 999.039 1.67653 0.111111 0.344917 1.43646 0
7 3.56814e+07 129005 0.987538 0.000688848 6.5e+07 0.0274387 0.0048903 3.05772 0.199897 0.0279028 0.000124291 4.43815e+06 11069.9 5.5915e+06 32487.8 3.56804e+07 128956 0.920317 0.000288585 3.21501 3.92883 171106 401.369 20451.6 100.294 541400 1243.64 732957 1184.54 0.0415007 9.21185e-05 999.216 1.3253 0.141414 0.348448 1.61252 0
8 3.37489e+07 113777 0.971275 0.00122057 6.5e+07 0.027565 0.00453842 2.92298 0.323094 0.0409389 0.000155645 3.49474e+06 8090.44 4.94227e+06 31505.1 3.37481e+07 113663 0.933831 0.000218497 7.98864 5.44909 178217 372.481 28014.2 110.792 478063 1279.83 684294 1223.64 0.0431492 0.000106442 999.355 1.12867 0.161616 0.394586 1.97778 0
9 3.46669e+07 129732 0.97187 0.00101679 6.5e+07 0.0338273 0.00607097 3.12121 0.245721 0.041629 0.000169641 3.12115e+06 7983.47 4.43626e+06 26420.5 3.46659e+07 129625 0.939471 0.000222544 8.39955 5.46207 160902 384.454 25624.5 98.2671 429020 1191.15 615547 1103.59 0.0386266 0.000101909 999.324 1.05062 0.131313 0.366431 2.16493 0
10 3.31275e+07 125989 0.952881 0.00156541 6.5e+07 0.033805 0.00611442 3.07273 0.247337 0.0535352 0.000205958 2.57751e+06 6753.04 4.04787e+06 27334.7 3.31269e+07 126030 0.947758 0.000194855 14.7323 5.94362 165074 392.054 31509.3 125.159 391989 1235.1 588572 1204.7 0.0392474 0.000102597 999.439 0.948131 0.121212 0.383306 2.56247 0
11 3.38347e+07 144607 0.95378 0.00157169 6.5e+07 0.040122 0.00746308 3.2158 0.198326 0.0540975 0.000214553 2.33589e+06 6628.98 3.6924e+06 25982.8 3.38339e+07 144472 0.951403 0.000203949 13.4013 6.32771 151062 382.43 29070.6 111.299 357243 1085.91 537375 998.07 0.0358521 0.000101531 999.476 0.860824 0.171717 0.403029 2.75963 0
12 3.2592e+07 131304 0.933456 0.00190068 6.5e+07 0.0399622 0.0070656 3.17761 0.264757 0.0649472 0.000262912 1.99229e+06 5391.74 3.43957e+06 24272 3.25911e+07 131255 0.956931 0.000170018 20.6986 6.61302 153827 369.846 33781.6 139.877 332531 1050.44 520139 1028.55 0.0360689 9.84363e-05 999.405 0.916707 0.141414 0.348448 3.18672 0
13 3.31644e+07 128515 0.934739 0.00159682 6.5e+07 0.046316 0.00836666 3.28671 0.227986 0.0655911 0.000254268 1.82468e+06 5556.57 3.17362e+06 19488.4 3.31634e+07 128468 0.959466 0.000149679 21.1298 6.78963 142154 392.695 31467.9 118.814 306139 997.735 479761 1032.19 0.033448 9.05271e-05 999.493 0.800046 0.131313 0.366431 3.39372 0
14 3.20915e+07 149372 0.914268 0.00215906 6.5e+07 0.0461228 0.00920466 3.2316 0.26398 0.0755053 0.000285419 1.59172e+06 4371.46 2.99264e+06 22915.4 3.20905e+07 149417 0.963441 0.000162456 27.562 7.22101 144037 350.183 35385.4 126.624 289227 963.88 468649 955.902 0.0334248 9.25369e-05 999.66 0.636503 0.0909091 0.28748 3.85272 0
15 3.25494e+07 144407 0.916223 0.00188253 6.5e+07 0.0525414 0.00958121 3.38317 0.189593 0.076163 0.000282679 1.46997e+06 4172.52 2.78232e+06 19381.5 3.25484e+07 144796 0.965322 0.000147774 27.4768 7.34224 134140 334.539 33179.5 117.239 268319 904.246 435639 926.454 0.0313315 7.95401e-05 999.564 0.70567 0.0909091 0.28748 4.07065 0
16 3.16325e+07 141989 0.895698 0.00221009 6.5e+07 0.0522908 0.00994729 3.33902 0.233193 0.0852644 0.000421486 1.30362e+06 3854.29 2.65035e+06 19434.6 3.16317e+07 141915 0.968282 0.000133479 34.0518 6.94155 135430 347.995 36458.7 160.724 255709 966.955 427598 888.677 0.0312038 0.000105719 999.69 0.535983 0.151515 0.35855 4.55965 0
17 3.19702e+07 143890 0.898849 0.00193636 6.5e+07 0.0589004 0.0111169 3.42187 0.21819 0.0859745 0.000335939 1.21285e+06 3427.24 2.47404e+06 16978.4 3.19691e+07 143790 0.969763 0.000130825 35.6756 7.18323 126976 313.966 34393.6 137.938 238676 802.964 400045 796.152 0.0295041 8.2883e-05 999.7 0.497542 0.181818 0.41105 4.78919 0
18 3.11835e+07 133646 0.878668 0.00223358 6.5e+07 0.0585718 0.0104451 3.41919 0.220854 0.0944373 0.000380767 1.08996e+06 3497.55 2.37478e+06 16567.9 3.11826e+07 133717 0.972036 0.00011358 40.9141 7.76538 127937 354.502 37225.5 140.946 229021 865.712 394183 856.322 0.0293336 9.291e-05 999.687 0.541522 0.10101 0.301342 5.30531 0
19 3.15213e+07 159081 0.881474 0.0022013 6.5e+07 0.0651206 0.0139888 3.4891 0.218003 0.0950473 0.000418668 1.0192e+06 3328.48 2.23474e+06 16956.4 3.15201e+07 159283 0.973166 0.000128825 40.1249 7.21221 120536 344.122 35248.8 141.337 215072 830.84 370857 768.741 0.0278882 8.84926e-05 999.683 0.495929 0.040404 0.196905 5.54168 0
20 3.075e+07 163324 0.862886 0.00280267 6.5e+07 0.0649528 0.0136213 3.4399 0.23398 0.103106 0.00037739 925924 3458.35 2.14898e+06 18243.6 3.0749e+07 163347 0.975026 0.000123406 48.5576 7.71763 121262 382.587 37746.8 134.653 207090 865.505 366099 904.095 0.0277289 8.5995e-05 999.724 0.440693 0.111111 0.344917 6.0899 0
21 3.10296e+07 178849 0.8664 0.00227011 6.5e+07 0.0716246 0.0178871 3.50024 0.231547 0.103715 0.000459492 870335 2612.66 2.02958e+06 16852.4 3.10287e+07 178868 0.975949 0.000128051 47.368 7.84263 114796 306.132 35899.3 149.458 195441 780.187 346136 752.568 0.0264956 8.59762e-05 999.662 0.510659 0.10101 0.301342 6.33457 0
22 3.03703e+07 171645 0.84802 0.00253141 6.5e+07 0.0713418 0.018705 3.51194 0.234689 0.11125 0.000461058 797302 2802.47 1.96354e+06 16353.2 3.03693e+07 171565 0.977434 0.00011845 54.7787 7.83129 115335 358.852 38097.2 150.972 189015 791.119 342447 791.275 0.0263205 8.18441e-05 999.756 0.438852 0.171717 0.403029 6.90675 0
23 3.06045e+07 169318 0.851657 0.00220367 6.5e+07 0.0781016 0.0181949 3.57532 0.179727 0.111938 0.000466055 751842 2251.89 1.86108e+06 14643.5 3.06032e+07 169234 0.978203 0.000110729 52.5837 8.00225 109512 288.017 36366.7 152.773 179006 813.493 324885 812.879 0.0252553 8.41661e-05 999.81 0.35629 0.171717 0.403029 7.16373 0
24 3.00074e+07 143423 0.834178 0.00213833 6.5e+07 0.0777975 0.0184531 3.5846 0.214305 0.119046 0.000426746 694063 2342.92 1.80646e+06 12570 3.00062e+07 143483 0.979428 9.10211e-05 61.0177 7.06842 109975 327.07 38308.2 131.39 173512 699.991 321795 702.142 0.025091 7.46122e-05 999.689 0.431717 0.181818 0.385695 7.7585 0
25 3.01569e+07 165033 0.838826 0.00240092 6.5e+07 0.0848335 0.0196965 3.63313 0.208587 0.119777 0.000500315 657241 2329.67 1.713e+06 13591.9 3.01558e+07 165040 0.980106 9.8826e-05 60.6634 7.32693 104806 313.966 36690.9 144.563 164831 752.75 306328 731.026 0.0241711 8.09135e-05 999.82 0.323535 0.121212 0.326374 8.0248 0
26 2.95907e+07 185719 0.82245 0.00247365 6.5e+07 0.0846159 0.0259403 3.62277 0.18276 0.126594 0.000585949 610405 2083.64 1.66573e+06 14588.7 2.95898e+07 185784 0.981147 0.000107608 66.7207 7.79964 105161 323.735 38488.3 153.089 160382 778.936 304031 786.775 0.0240041 8.1561e-05 999.775 0.356074 0.111111 0.31427 8.64538 0
27 2.97922e+07 183309 0.825931 0.002417 6.5e+07 0.0914267 0.02429 3.68238 0.17484 0.127244 0.000484183 579051 2011.82 1.59025e+06 13607.3 2.97912e+07 183174 0.981683 0.000100258 64.7404 6.83628 100421 302.928 36909.3 142.095 152737 592.138 290068 684.982 0.0231821 6.05493e-05 999.758 0.369505 0.0909091 0.28748 8.91845 0
28 2.92602e+07 146689 0.810203 0.0022614 6.5e+07 0.0912458 0.0256667 3.65476 0.183517 0.133646 0.000436742 540411 2039.42 1.54955e+06 11129.5 2.92595e+07 146817 0.982572 7.77813e-05 71.983 7.48598 100667 328.462 38536 145.732 149141 529.642 288344 626.862 0.023002 5.85468e-05 999.73 0.355281 0.171717 0.377134 9.56323 0
29 2.94328e+07 175457 0.814436 0.00242211 6.5e+07 0.0981887 0.0280307 3.69244 0.180259 0.134328 0.000475265 514708 2006.1 1.48173e+06 12267.8 2.94319e+07 175462 0.983037 9.07878e-05 69.8743 7.1875 96479.1 322.452 37041.2 141.694 142232 512.639 275753 628.011 0.0222903 5.70333e-05 999.734 0.38069 0.10101 0.301342 9.8379 0
30 2.89306e+07 159972 0.799477 0.00227212 6.5e+07 0.0980592 0.0280135 3.71852 0.176842 0.140695 0.000541108 482504 1780.74 1.44614e+06 11120.6 2.89296e+07 160095 0.983809 7.89042e-05 75.4522 6.59814 96659.3 312.347 38566.3 153.345 138888 606.474 274113 667.759 0.0221479 6.37524e-05 999.804 0.332569 0.0909091 0.320697 10.5048 0
31 2.90754e+07 172095 0.803508 0.00233419 6.5e+07 0.105074 0.0256176 3.71619 0.17495 0.141279 0.000566866 460169 1588.76 1.38575e+06 11338.5 2.90746e+07 172166 0.984215 8.3162e-05 76.2757 7.50692 92754.2 267.425 37122.7 150.808 132886 561.623 262763 586.162 0.0214893 6.62838e-05 999.815 0.31214 0.111111 0.344917 10.7911 0
32 2.85891e+07 174922 0.7895 0.0025509 6.5e+07 0.105036 0.0335179 3.75947 0.168869 0.147325 0.000592412 433282 1778.99 1.35349e+06 11485.5 2.85884e+07 174952 0.984891 8.07067e-05 83.0748 8.26821 92921.3 327.055 38521.3 168.296 130029 586.445 261471 620.666 0.0213461 6.96904e-05 999.772 0.332526 0.151515 0.385695 11.4751 0
33 2.87398e+07 157631 0.793525 0.00214766 6.5e+07 0.112067 0.0312929 3.77533 0.189267 0.147919 0.000517803 414240 1596.11 1.30064e+06 9686.27 2.87388e+07 157541 0.98524 7.14585e-05 80.7459 7.49627 89377.7 296.099 37152.3 132.091 124638 521.213 251168 582.285 0.0207575 5.70537e-05 999.767 0.323677 0.151515 0.385695 11.7638 0
34 2.82918e+07 176076 0.779837 0.00224846 6.5e+07 0.11198 0.0381958 3.72608 0.162319 0.153763 0.000581135 391154 1479.27 1.27301e+06 10470.2 2.82907e+07 175975 0.985829 7.63364e-05 86.6646 7.48284 89462.6 304.208 38445 136.992 122121 570.291 250029 605.351 0.0206206 6.25518e-05 999.816 0.290456 0.0808081 0.27254 12.4693 0
35 2.83914e+07 166314 0.784321 0.0023052 6.5e+07 0.119254 0.0350035 3.75902 0.182344 0.154364 0.00062372 374730 1554.31 1.22333e+06 9703 2.83904e+07 166154 0.986152 7.08141e-05 85.8205 7.4273 86200.2 302.175 37156 148.888 117348 526.393 240705 558.725 0.0200815 6.39469e-05 999.835 0.275543 0.111111 0.31427 12.7666 0
36 2.79627e+07 154406 0.771674 0.00217606 6.5e+07 0.119272 0.0383421 3.77189 0.173956 0.160049 0.000550875 355434 1488.6 1.19798e+06 8902.64 2.79615e+07 154237 0.986675 6.36656e-05 91.7607 7.19993 86358.5 313.197 38377 140.356 115049 507.061 239784 633.472 0.0199655 5.52321e-05 999.85 0.25048 0.141414 0.348448 13.4788 0
37 2.80778e+07 157437 0.775627 0.00224771 6.5e+07 0.126415 0.0380273 3.81572 0.175086 0.160465 0.000526617 340734 1378.4 1.15493e+06 8796.44 2.80769e+07 157337 0.986949 6.35536e-05 92.1392 7.83851 83275.6 278.686 37107.1 137.386 110865 483.814 231248 579.82 0.0194532 5.32078e-05 999.823 0.276437 0.0909091 0.28748 13.7809 0
38 2.76655e+07 159456 0.76329 0.00214529 6.5e+07 0.126468 0.0349671 3.78814 0.154327 0.166113 0.00062038 323747 1241.57 1.13228e+06 8671.79 2.76645e+07 159294 0.987417 6.15045e-05 97.1111 7.57127 83329.1 276.91 38252.7 159.964 108700 482.541 230282 614.888 0.0193497 5.27113e-05 999.908 0.182037 0.0707071 0.256335 14.514 0
39 2.77625e+07 168312 0.767557 0.00219114 6.5e+07 0.133824 0.0393962 3.83528 0.147953 0.166755 0.000677572 311228 1260.86 1.0924e+06 8825.14 2.77614e+07 168153 0.987669 6.18347e-05 94.7436 7.79678 80554 272.217 37076.6 136.82 104711 527.645 222342 526.122 0.018904 6.38199e-05 999.903 0.21409 0.151515 0.385695 14.8134 0
40 2.74246e+07 167086 0.755128 0.00221853 6.5e+07 0.133606 0.0464915 3.83106 0.181884 0.17188 0.000605832 296366 1242.37 1.07482e+06 8613.68 2.74236e+07 167106 0.988069 6.01135e-05 98.0245 8.03053 80589.8 291.861 38100.1 156.34 102977 443.896 221667 576.468 0.0187822 5.03694e-05 999.864 0.234954 0.111111 0.31427 15.5536 0
41 2.74947e+07 164161 0.759835 0.00209966 6.5e+07 0.14108 0.0435186 3.84652 0.172228 0.172697 0.000649119 285491 1177.64 1.03733e+06 8064.51 2.74938e+07 164087 0.988299 5.7926e-05 98.9042 7.50652 78046.1 275.629 37036.4 150.774 99376.1 470.653 214459 489.444 0.0183809 5.60885e-05 999.854 0.219764 0.111111 0.31427 15.8484 0
42 2.71184e+07 170179 0.748132 0.00220842 6.5e+07 0.141176 0.0448191 3.83454 0.181308 0.177891 0.000645764 272293 1050.57 1.01903e+06 8371.75 2.71178e+07 170158 0.988676 5.88472e-05 103.742 7.79279 77999.9 255.541 37986.6 152.212 97552.4 534.46 213539 606.533 0.018283 5.67113e-05 999.858 0.231973 0.222222 0.41574 16.6181 0
43 2.72196e+07 160600 0.752425 0.00203189 6.5e+07 0.14849 0.0458855 3.88067 0.154001 0.178406 0.000630603 262575 1080.17 986570 7515.49 2.72186e+07 160448 0.988871 5.2107e-05 103.765 7.98016 75625.3 266.552 36910.3 136.161 94353.8 432.142 206889 486.174 0.0178934 5.15859e-05 999.868 0.210048 0.111111 0.344917 16.9074 0
44 2.68209e+07 167580 0.742049 0.00222929 6.5e+07 0.148908 0.0477291 3.87144 0.172214 0.183534 0.000678474 251333 1026.96 967749 7917.58 2.68198e+07 167525 0.989226 5.37803e-05 107.704 7.93157 75653.2 258.868 37868.3 163.835 92806.6 414.556 206328 478.079 0.0178026 5.20532e-05 999.871 0.204643 0.0606061 0.238606 17.67 0
45 2.69305e+07 192538 0.745807 0.00224886 6.5e+07 0.156165 0.0478741 3.88979 0.142517 0.184079 0.000644617 242389 912.438 939012 8624.81 2.69298e+07 192914 0.989397 6.09143e-05 107.57 8.10181 73370.5 233.305 36821.4 130.968 89839.2 410.631 200031 445.649 0.0174421 4.84562e-05 999.884 0.188336 0.131313 0.337742 17.9688 0
46 2.65803e+07 152100 0.735357 0.00197886 6.5e+07 0.156388 0.0523711 3.90272 0.171796 0.188948 0.000573303 232331 936.259 923293 6847.08 2.65793e+07 152057 0.98971 4.80107e-05 110.879 7.7087 73366 251.379 37689.6 127.291 88416.1 413.413 199472 495.846 0.0173497 4.73977e-05 999.902 0.190621 0.0808081 0.27254 18.7396 0
47 2.66409e+07 141326 0.739577 0.00181401 6.5e+07 0.164051 0.0516184 3.86159 0.167924 0.189697 0.000729977 224471 892.732 894887 6088.18 2.66401e+07 141139 0.98988 4.2723e-05 110.907 7.09415 71251.2 238.746 36738.9 149.122 85681.8 468.648 193672 526.745 0.0170232 5.26881e-05 999.865 0.207368 0.121212 0.326374 19.0358 0
48 2.63438e+07 186695 0.729168 0.002429 6.5e+07 0.164054 0.056728 3.90572 0.15413 0.194312 0.00067094 215468 989.23 882149 8102.1 2.63428e+07 186404 0.990152 5.4755e-05 114.296 9.06081 71234.5 269.974 37534 146.817 84395.6 401.391 193164 442.665 0.016926 4.88344e-05 999.886 0.201533 0.10101 0.301342 19.8033 0
49 2.63955e+07 172832 0.733549 0.00202709 6.5e+07 0.17178 0.0563221 3.93259 0.162735 0.194966 0.000729434 208469 833.155 855645 7059.45 2.63944e+07 172634 0.99031 5.0065e-05 112.864 7.81453 69270.7 237.076 36596 136.739 81838.3 455.425 187705 448.945 0.0166248 5.41369e-05 999.886 0.19402 0.121212 0.326374 20.0944 0
50 2.60753e+07 171992 0.723773 0.00217003 6.5e+07 0.171956 0.0650763 3.92869 0.154636 0.19965 0.000714862 200480 970.901 842487 7100.05 2.60742e+07 171968 0.990567 4.8849e-05 118.677 7.83834 69252 283.531 37403.5 154.733 80690.1 378.179 187346 462.57 0.0165383 4.84195e-05 999.905 0.171537 0.0707071 0.256335 20.8636 0
51 2.61383e+07 187060 0.728026 0.00225827 6.5e+07 0.179708 0.0558246 3.96296 0.142594 0.20026 0.000741316 194160 816.099 818589 7510.41 2.61373e+07 187042 0.990708 5.3062e-05 116.822 7.31782 67406.3 224.071 36487.5 166.503 78307.2 402.131 182201 499.214 0.0162506 4.6445e-05 999.899 0.176292 0.10101 0.301342 21.1442 0
52 2.5859e+07 166736 0.718147 0.00192013 6.5e+07 0.179777 0.0641149 3.95455 0.149022 0.204826 0.000754355 186933 741.358 807608 6547.54 2.58581e+07 166827 0.990937 4.51095e-05 120.693 7.83232 67374.4 228.896 37224.9 141.259 77140.6 431.756 181740 457.2 0.0161771 4.83883e-05 999.885 0.199057 0.0909091 0.28748 21.9156 0
53 2.58877e+07 187039 0.722426 0.00212007 6.5e+07 0.187729 0.0568871 3.93082 0.147595 0.205512 0.000750915 181084 746.273 784390 7147.44 2.58867e+07 187089 0.991074 4.92782e-05 120.265 7.61799 65586.2 222.165 36367.1 153.509 75005.3 371.624 176959 462.754 0.0159061 4.58019e-05 999.922 0.169798 0.111111 0.31427 22.2087 0
54 2.55618e+07 199869 0.713679 0.00236988 6.5e+07 0.188262 0.0704544 3.95829 0.132113 0.210015 0.000801125 174708 774.721 771994 7647.32 2.55609e+07 200062 0.9913 5.17338e-05 125.126 7.94618 65566.5 238.822 37096 158.854 73973 408.076 176636 463.577 0.015833 5.00439e-05 999.901 0.180652 0.0909091 0.28748 22.9739 0
55 2.56262e+07 172489 0.717414 0.00224289 6.5e+07 0.196048 0.0689024 3.95941 0.142341 0.210831 0.000708631 169350 803 751888 6434.56 2.56253e+07 172496 0.991416 4.488e-05 123.306 6.96323 63879.9 244.356 36268.8 139.66 71879.8 358.172 172028 492.683 0.0155857 4.23228e-05 999.871 0.193486 0.0808081 0.27254 23.2442 0
56 2.5363e+07 186531 0.708337 0.00210671 6.5e+07 0.196188 0.0688147 3.95328 0.153712 0.214966 0.000715863 163461 703.782 742334 6812.48 2.53622e+07 186509 0.991613 4.61894e-05 125.956 7.70238 63833.9 231.448 36920.6 142.884 70996.3 395.496 171751 479.233 0.0155041 4.54437e-05 999.901 0.16803 0.0909091 0.28748 23.9966 0
57 2.54036e+07 152956 0.712231 0.00182352 6.5e+07 0.204147 0.063023 3.98529 0.1393 0.215706 0.000692005 158614 655.425 722810 5441.32 2.54027e+07 152930 0.991725 3.93193e-05 125.649 6.43471 62244.9 212.571 36112.8 121.854 69059.9 395.689 167418 431.271 0.0152675 4.46424e-05 999.935 0.140257 0.131313 0.337742 24.2641 0
58 2.51438e+07 165604 0.704008 0.00207527 6.5e+07 0.204319 0.0636056 3.94949 0.15089 0.219999 0.000732658 153497 706.615 713502 5948.27 2.5143e+07 165718 0.991908 4.00039e-05 129.145 6.79508 62267.5 232.196 36760.4 143.211 68066.1 340.964 167094 397.117 0.0152101 4.21764e-05 999.915 0.154272 0.121212 0.326374 24.99 0
59 2.51699e+07 164272 0.707889 0.00207075 6.5e+07 0.21251 0.0594803 4.0024 0.124107 0.22064 0.000826582 149081 655.316 694854 5738.68 2.5169e+07 164193 0.992014 3.9255e-05 128.679 5.93211 60762.3 209.398 35990.1 138.008 66365.1 382.805 163118 397.792 0.0149781 4.75463e-05 999.914 0.158027 0.0909091 0.28748 25.2474 0
60 2.49062e+07 178019 0.699803 0.00214541 6.5e+07 0.212823 0.0719453 3.99882 0.148982 0.224728 0.00074877 144385 649.85 685790 6134.25 2.49052e+07 177975 0.992187 4.1583e-05 132.236 7.00075 60758.1 223.045 36608.5 138.607 65535.1 357.586 162902 401.951 0.0149125 4.25189e-05 999.907 0.156738 0.0808081 0.27254 25.9715 0
61 2.49556e+07 184734 0.703268 0.00221924 6.5e+07 0.22084 0.0801907 3.99404 0.133413 0.225442 0.000738526 140174 676.666 669343 6224.28 2.49548e+07 184815 0.99228 4.31348e-05 131.318 7.08341 59282.2 223.548 35854.2 145.559 63903 288.224 159039 395.092 0.0146961 3.68095e-05 999.919 0.151355 0.0808081 0.27254 26.2098 0
62 2.46522e+07 173361 0.695896 0.00193723 6.5e+07 0.221619 0.0808385 3.9855 0.129429 0.229705 0.000727606 135942 565.787 659256 5687.82 2.46511e+07 173009 0.992452 3.86063e-05 135.603 7.05732 59272 207.911 36490.2 134.071 63094.7 336.702 158857 416.036 0.0146446 3.67527e-05 999.936 0.132592 0.161616 0.368098 26.9315 0
63 2.47028e+07 160867 0.699522 0.00191282 6.5e+07 0.229615 0.0704664 4.02261 0.136024 0.230377 0.000746855 132192 566.555 643876 5184.38 2.4702e+07 160927 0.992539 3.54348e-05 133.882 6.61443 57917.7 203.368 35745.2 140.265 61496.8 337.543 155160 420.551 0.0144436 3.96873e-05 999.894 0.171011 0.0909091 0.28748 27.1477 0
64 2.45018e+07 191307 0.691253 0.00231008 6.5e+07 0.229602 0.0796559 3.98627 0.1402 0.234174 0.000850598 128170 587.872 637479 6263.98 2.45008e+07 191420 0.992678 4.08646e-05 136.512 8.17867 57881.8 201.199 36275 156.585 60749.1 325.056 154906 357.503 0.0143797 4.33101e-05 999.94 0.113868 0.131313 0.337742 27.8338 0
65 2.44813e+07 194466 0.695627 0.00210201 6.5e+07 0.238303 0.0896204 4.01911 0.120547 0.234973 0.000778903 124846 547.796 620772 6020.76 2.44805e+07 194370 0.992773 4.19926e-05 136.728 7.11343 56616.2 205.482 35618.3 136.791 59350.7 338.997 151585 402.26 0.0141871 4.0189e-05 999.919 0.151826 0.151515 0.35855 28.0457 0
66 2.4217e+07 156795 0.688198 0.00185905 6.5e+07 0.238895 0.0794805 4.01286 0.145335 0.239045 0.000674297 121131 516.58 612687 4947.79 2.4216e+07 156879 0.992916 3.37757e-05 141.668 6.48886 56540.3 190.401 36176.9 137.323 58621.9 299.724 151339 403.704 0.0141368 3.29881e-05 999.895 0.159902 0.131313 0.337742 28.7287 0
67 2.42645e+07 190491 0.691808 0.00226515 6.5e+07 0.246953 0.0672684 4.06136 0.119325 0.239677 0.000863482 117981 571.475 599122 5848.32 2.42635e+07 190633 0.992991 3.96765e-05 140.695 7.36801 55330.5 205.679 35499.1 157.838 57282.8 327.143 148112 400.011 0.0139502 4.06784e-05 999.903 0.146666 0.0909091 0.28748 28.8958 0
68 2.40336e+07 170333 0.684406 0.00207516 6.5e+07 0.24745 0.0748556 4.00639 0.129898 0.243641 0.000840077 114630 539.811 592217 5241.41 2.40328e+07 170429 0.993122 3.48205e-05 143.055 6.65257 55289.6 201.183 36035.3 133.65 56578.8 352.14 147904 388.381 0.013903 4.20981e-05 999.915 0.145406 0.0909091 0.28748 29.545 0
69 2.40671e+07 184702 0.688138 0.00209076 6.5e+07 0.255741 0.0726297 4.03484 0.122697 0.244319 0.000832555 111761 536.382 579045 5454.62 2.40664e+07 184637 0.993195 3.60514e-05 141.998 7.30346 54149.2 205.89 35379.5 132.835 55280.4 309.908 144809 371.601 0.0137279 3.82884e-05 999.919 0.148628 0.0808081 0.27254 29.7023 0
70 2.38378e+07 177011 0.680986 0.00202435 6.5e+07 0.256277 0.0715686 4.02756 0.132671 0.248149 0.00094151 108595 461.632 572460 5203.51 2.38369e+07 176957 0.993319 3.46988e-05 144.515 6.21911 54072.1 184.647 35876.9 146.972 54629.7 366.636 144579 419.421 0.0136789 4.61676e-05 999.935 0.129275 0.0808081 0.27254 30.3181 0
