#1-sta 2-avgThroughput 3-stdThroughput 4-JFI 5-stdJFI 6-Bandwidth 7-avgDelay 8-stdDelay 9-avgBackoffStage 10-stdBackoffStage 11-totalFractionOfCollisionSlots 12.stdCollidingSlots 13.avgThroughputDCF 14. stdThroughputDCF 15.avgThroughputECA 16.stdThroughputECA 17.Sum of 15 and 16 18. std of 17 19. AvgBlockingProb 20. StdBlockingProb 21. AvgDroppedPackets 22.StdDropped 23.SxSlots 24.stdSxSlots 25.ColSlots 26.StdColSlots 27.EmptySlots 28.stdEmpty 29.totalSlots 30.stdTotalSlots 31.averageTAU 32.stdTAU 33.avgQSize 34.stdQSize 35.avgQEmpty 36.stdQEmpty 37. avgQDelay 38. stdQDelay
2 2.00174e+06 10235.9 0.999968 4.38759e-05 1e+06 0.000253905 4.43724e-07 0 0 1.32376e-06 4.21147e-07 0 0 1.0009e+06 5110.25 2.0018e+06 10219.5 0 0 0 0 24433.4 125.11 13.8384 4.40318 1.04293e+07 3462.03 1.04537e+07 3349.8 0.00116997 6.30668e-06 0.0555556 0.157135 23656.3 117.022 0.000266341 0
3 3.00036e+06 12230.5 0.999937 6.13081e-05 1e+06 0.000256006 5.9893e-07 0 0 7.59653e-06 9.61069e-07 999916 8684.24 1.00034e+06 6262.3 3.00059e+06 12225.6 0 0 0 0 36618.1 148.865 76.9091 9.72562 1.00876e+07 4187.24 1.01243e+07 4035.22 0.00121068 5.46379e-06 0.026936 0.0908466 35431.9 137.455 0.000272399 0
4 3.99939e+06 14885.7 0.999935 4.5779e-05 1e+06 0.00025921 6.65811e-07 0 0 2.25979e-05 1.53737e-06 1.00133e+06 9093.23 999590 4477.45 4.0001e+06 14888.5 0 0 0 0 48795.8 181.468 221.293 15.0187 9.74371e+06 5175.59 9.79273e+06 4989.58 0.00125706 5.50428e-06 0.0378788 0.108733 47194.5 168.636 0.000279664 0
5 4.99961e+06 18929.2 0.999937 4.66515e-05 1e+06 0.000263641 8.89138e-07 0 0 4.99767e-05 2.86911e-06 1.00062e+06 8510.71 1.00017e+06 4243.04 5.00131e+06 19026.5 0 0 0 0 60971.1 230.185 472.677 27.0375 9.39662e+06 6627.1 9.45807e+06 6390.58 0.00130944 6.09368e-06 0.0363636 0.103918 58946.4 214.589 0.000288254 0
6 5.9969e+06 21794.8 0.999928 4.39009e-05 1e+06 0.00026944 9.3139e-07 0.003367 0.0333316 9.41829e-05 3.23429e-06 999542 9553.74 1.0001e+06 4045.57 6.00006e+06 21798.2 0 0 0 0 73084.5 264.2 859.04 29.3088 9.04711e+06 7572.24 9.12105e+06 7301.53 0.00136725 6.2017e-06 0.0387206 0.0779518 70627.4 252.298 0.000298362 0
7 6.99629e+06 22617.2 0.99993 4.02656e-05 1e+06 0.000277042 1.16961e-06 0 0 0.000162126 5.11225e-06 999460 6566.15 1.0004e+06 3769.35 7.00093e+06 22599.3 0 0 0 0 85228.1 273.485 1423.2 44.2242 8.69184e+06 8206.26 8.77849e+06 7913.42 0.00143408 6.45452e-06 0.021645 0.0550992 82295.6 259.551 0.000310579 0
8 7.99306e+06 25062.5 0.999932 3.56186e-05 1e+06 0.00028658 1.27454e-06 0.00378788 0.0278351 0.000259817 6.01986e-06 1.00109e+06 6182.2 999686 3625.07 8.0003e+06 25140.9 0 0 0 0 97273.9 301.829 2190.78 49.5496 8.33264e+06 9114.51 8.4321e+06 8791.12 0.00150843 6.83024e-06 0.0429293 0.077772 93892.5 283.61 0.000324898 0
9 8.99007e+06 27652.4 0.99993 3.14601e-05 1e+06 0.000298056 1.52632e-06 0.006734 0.0494846 0.000392856 8.59899e-06 999321 7204.07 1.00034e+06 3447.22 9.00099e+06 27961.1 0 0 0 0 109268 329.915 3174.4 67.5125 7.968e+06 10089.4 8.08045e+06 9732.82 0.00159219 7.34121e-06 0.0426487 0.066455 105440 306.73 0.000341407 0
10 9.98609e+06 29435.8 0.999929 3.11172e-05 1e+06 0.000312127 1.85474e-06 0.00909091 0.0378485 0.000572246 1.06924e-05 999758 6623.74 1.00025e+06 3165.43 1.00015e+07 29489.1 0 0 0 0 121196 350.176 4419.21 78.8416 7.59708e+06 11029.6 7.7227e+06 10639.9 0.00168752 8.05524e-06 0.0434343 0.0780593 116902 327.861 0.000360889 0
11 1.09823e+07 30141.2 0.999929 3.0214e-05 1e+06 0.000329541 2.09131e-06 0.0119375 0.0477325 0.000810644 1.27659e-05 999731 5272.51 1.00025e+06 3323.33 1.10012e+07 30219.7 0 0 0 0 133150 366.747 5963.39 89.0239 7.21735e+06 11308.3 7.35646e+06 10905.7 0.00179845 8.32256e-06 0.0560147 0.0834467 128246 333.918 0.000384586 0
12 1.19765e+07 30296 0.999928 3.30235e-05 1e+06 0.000350406 2.64391e-06 0.010101 0.0462886 0.00112089 1.93769e-05 999611 5578.2 1.00036e+06 2626.58 1.2002e+07 30384.7 0 0 0 0 144899 352.551 7828.45 124.483 6.83157e+06 12554.1 6.9843e+06 12115.4 0.00192381 9.85409e-06 0.0488216 0.072057 139490 323.155 0.000412088 0
13 1.29679e+07 30434.6 0.999922 3.03679e-05 1e+06 0.000376056 2.77723e-06 0.022533 0.0639882 0.0015234 1.81047e-05 1.00043e+06 5128.76 1.00002e+06 2652.44 1.30015e+07 30356.6 0 0 0 0 156484 343.956 10061.2 105.561 6.43804e+06 12072.1 6.60458e+06 11657.9 0.00206848 9.58048e-06 0.062937 0.0961661 150559 313.436 0.000445369 0
14 1.39584e+07 30792 0.999927 2.8847e-05 1e+06 0.000407123 3.30857e-06 0.0382395 0.0845234 0.00204366 2.44078e-05 1.00031e+06 5333.92 1.00004e+06 2766.94 1.40014e+07 31298.3 0 0 0 0 167899 349.74 12702.7 131.411 6.0352e+06 12726.5 6.2158e+06 12288.9 0.00223737 1.09329e-05 0.0728716 0.0879106 161438 322.09 0.000485253 0
15 1.4952e+07 33179.7 0.999925 2.62533e-05 1e+06 0.000446683 4.30629e-06 0.0148148 0.0439932 0.0027236 3.2923e-05 1.00039e+06 4821.65 1.00002e+06 2579.69 1.50018e+07 33338.8 0 0 0.000673401 0.00666633 179434 380.997 15828.2 162.313 5.61637e+06 13900.4 5.81163e+06 13421.9 0.00244368 1.27759e-05 0.0478114 0.0628828 172047 345.131 0.000536465 0
16 1.59384e+07 34389.8 0.999926 2.62567e-05 1e+06 0.000494087 5.39669e-06 0.0290404 0.0953931 0.00358977 4.50002e-05 1.00097e+06 4530.52 999696 2558.77 1.60002e+07 35120.3 0 0 0.000631313 0.00624968 190410 379.567 19395.2 199.292 5.19325e+06 15102 5.40306e+06 14591.8 0.00268132 1.53518e-05 0.0707071 0.0913072 182348 341.326 0.000597486 0
17 1.69223e+07 34262.3 0.999925 2.81751e-05 1e+06 0.000553591 5.66441e-06 0.0445633 0.133535 0.00471157 4.98236e-05 999517 4535.99 1.00001e+06 2283.72 1.69982e+07 35118.8 0 0 0 0 201014 370.098 23484.4 190.726 4.76005e+06 14791.1 4.98455e+06 14295.4 0.00296704 1.65609e-05 0.0760547 0.120655 192216 331.09 0.000674737 0
18 1.79077e+07 35033.5 0.999926 2.45215e-05 1e+06 0.000629989 9.12394e-06 0.0594837 0.104534 0.00620946 7.16793e-05 1.00008e+06 4214.68 999940 2318.02 1.79995e+07 35522 0 0 0.0016835 0.00952333 211185 367.208 28259.1 242.882 4.3117e+06 15918.5 4.55114e+06 15401 0.00332283 2.0625e-05 0.102132 0.123017 201563 322.134 0.000775685 0
19 1.88971e+07 35473.9 0.999928 2.46548e-05 1e+06 0.000734288 1.30318e-05 0.0329612 0.0671542 0.00829519 0.00010682 999325 3960.03 1.00026e+06 2170.94 1.90003e+07 36300.9 0 0 0.0148857 0.0317737 221393 346.216 33928.6 304.152 3.83504e+06 17787.5 4.09036e+06 17229.4 0.00379748 2.74816e-05 0.082403 0.0792257 209968 299.665 0.000921183 0
20 1.98765e+07 36122.5 0.999922 2.63353e-05 1e+06 0.000867499 1.52189e-05 0.105051 0.153658 0.0110696 0.000131112 1.00003e+06 3642.3 999987 2170.15 1.99999e+07 36989.3 0 0 0.0161616 0.0273661 230159 338.271 40179.5 298.907 3.35956e+06 17761.7 3.6299e+06 17216.5 0.0043817 3.30332e-05 0.140909 0.149133 217384 294.715 0.0011129 0
21 2.08543e+07 36258.6 0.999919 2.85365e-05 1e+06 0.00104985 2.40431e-05 0.149591 0.196515 0.0149889 0.000192776 1.00011e+06 4295.27 999987 2150.61 2.10003e+07 37507.1 0 0 0.070226 0.0739396 237729 314.82 47296 347.837 2.8706e+06 18859.8 3.15563e+06 18319.2 0.00516046 4.44511e-05 0.176046 0.194104 223266 304.355 0.00139255 0
22 2.18282e+07 36529.7 0.99992 2.3516e-05 1e+06 0.00130733 3.48497e-05 0.195592 0.25967 0.0207205 0.000291183 1.00093e+06 4542.83 999653 1914.65 2.19988e+07 38004.3 0 0 0.252066 0.138305 243464 311.887 55323.6 390.004 2.37148e+06 19916.6 2.67027e+06 19387.1 0.00623688 6.23258e-05 0.213039 0.233804 226796 325.361 0.00182652 0
23 2.28072e+07 36568.5 0.999917 2.55027e-05 1e+06 0.00172079 6.34878e-05 0.305226 0.286007 0.0302856 0.00046676 999811 3192.29 999840 2063.41 2.29962e+07 37401.3 0 0 1.01361 0.354495 247757 289.552 64873.8 424.719 1.82973e+06 19881.8 2.14236e+06 19436.6 0.00797875 9.24714e-05 0.327185 0.258985 225545 465.42 0.00266479 0
24 2.37733e+07 38074.2 0.999918 2.47466e-05 1e+06 0.00232217 0.000105844 0.475589 0.452771 0.0447989 0.000788896 1.00008e+06 3489.32 999497 1943.75 2.39915e+07 39296.7 0 0 3.51978 0.654624 246963 335.973 74178.6 432.424 1.33502e+06 20141.6 1.65616e+06 19841.6 0.0104405 0.00014742 0.579966 0.574448 219561 603.72 0.00410754 0
25 2.47279e+07 39943.4 0.99992 2.17386e-05 1e+06 0.00328807 0.000247481 0.732525 0.449238 0.0682207 0.0012733 999844 3562.03 998744 2044.35 2.49752e+07 41167 0 0 11.56 1.37935 240346 647.954 82681 373.922 889262 17482.5 1.21229e+06 17576.2 0.014185 0.000219576 0.88202 0.577683 205243 1144.88 0.00707986 0
26 2.56458e+07 39343.4 0.999923 2.41131e-05 1e+06 0.00497966 0.000744097 1.06682 0.48689 0.102758 0.00204897 998213 4144.59 996577 1806.72 2.59208e+07 39184.4 0 0 35.2844 3.24984 224946 1192.59 88041.2 300.285 544101 14518.1 857089 15408.4 0.0192742 0.000319848 1.75796 1.06998 177679 2126.11 0.0145164 0
27 2.6332e+07 28962.5 0.999868 4.34943e-05 1e+06 0.00990525 0.059073 1.91882 0.400588 0.151766 0.00072831 977573 3789.92 987911 1944.28 2.66012e+07 29665.2 4.52518e-07 4.4797e-06 121.732 5.57577 190451 1085.86 85730.1 385.816 288720 2905.52 564901 4177.54 0.025553 8.86766e-05 58.1306 14.5821 103010 1641.17 0.280378 0
28 2.66869e+07 32325.1 0.998001 0.000229136 1e+06 0.0114177 0.07396 2.14105 0.326672 0.158353 0.000501112 892105 4519.33 986647 1785.76 2.69643e+07 31576 0.0062444 0.00136625 134.458 5.9562 179211 982.594 83366.7 457.35 263887 1678.7 526465 2878.61 0.0253815 5.78673e-05 240.319 5.79123 96292.9 899.37 1.26683 0
29 2.7078e+07 44226.9 0.993558 0.000418597 1e+06 0.012896 0.0320138 2.17276 0.295272 0.16321 0.000481513 810836 4544.7 985731 2171.44 2.73619e+07 45511.1 0.0250246 0.00128096 141.885 6.58118 169114 1089.15 80767.2 503.023 244989 1691.98 494870 3055.48 0.0250303 5.56184e-05 241.685 1.84379 92375.7 1053.57 1.7818 0
30 2.75239e+07 43389 0.987002 0.000609179 1e+06 0.0145498 0.0272421 2.27239 0.321613 0.167697 0.00053713 735584 4788.03 985372 2051.17 2.78127e+07 43950.5 0.0415589 0.00119758 146.608 6.51959 159234 1257.93 77900.4 613.016 227398 1980.71 464533 3653.82 0.0246645 6.26306e-05 235.673 1.70829 88218.3 1161.38 2.0631 0
31 2.75609e+07 39188.3 0.973948 0.00060004 1e+06 0.0166369 0.0185895 2.49104 0.282098 0.17334 0.000525293 649861 2992.8 984243 1883.85 2.78365e+07 39750.9 0.0678998 0.00100489 154.54 5.91087 150665 1200.26 75498.2 676.151 209384 1764.78 435547 3467.82 0.0244063 5.44571e-05 262.052 2.06303 78774.3 1154.04 2.69146 0
32 2.80794e+07 52370.4 0.96453 0.000899457 1e+06 0.0189994 0.0241348 2.62405 0.338864 0.176333 0.000619351 592433 4145.53 983796 2144.22 2.83506e+07 52806 0.0802335 0.00113393 154.959 6.13389 140408 1315.9 71431.1 738.771 193251 1782.29 405089 3639.03 0.0239455 6.70188e-05 255.919 2.57115 73293 1266.22 2.91018 0
33 2.86579e+07 46335.3 0.954684 0.000857943 1e+06 0.021877 0.0233784 2.70707 0.305651 0.178402 0.000612119 539501 3401.79 984207 1926.64 2.89212e+07 45698.3 0.0906501 0.000929176 151.101 5.50407 129965 1280.42 66844.7 781.977 177871 1755.49 374680 3676.26 0.0234146 6.47862e-05 249.372 2.97656 67039.9 1281.45 3.12812 0
34 2.92869e+07 48968 0.94534 0.000927176 1e+06 0.0256568 0.0252611 2.86839 0.349441 0.178927 0.000724008 492691 3357.84 984314 2039.61 2.95337e+07 49108.8 0.0990948 0.000858607 147.248 6.27692 118965 1324.76 61392.2 864.618 162746 1762.75 343103 3824.79 0.0227683 7.16558e-05 244.824 3.35443 59466.8 1393.26 3.34495 0
35 2.94e+07 58430.7 0.928585 0.00102458 1e+06 0.0296413 0.0319718 3.02771 0.304233 0.180269 0.00108233 447849 3136.66 984196 2218.97 2.96197e+07 56339.7 0.119845 0.000907991 142.845 6.70833 111445 1696.92 57613.5 1137.96 150518 1945.64 319576 4678.3 0.0221904 0.000103149 268.869 4.01105 50444.2 1756.31 4.0158 0
36 3.01406e+07 55136.3 0.920993 0.000962689 1e+06 0.0356102 0.030526 3.22924 0.315861 0.177234 0.00140202 415624 2932.02 984927 1948.78 3.03336e+07 53196.2 0.124695 0.000738497 130.614 6.40643 100992 1551.12 51377.3 1133.82 137486 1729.3 289855 4307.04 0.0213099 0.000124437 266.743 5.70338 42355.9 1645.27 4.22304 0
37 3.09754e+07 66388.8 0.915489 0.000967971 1e+06 0.0442419 0.0339948 3.43598 0.275667 0.170737 0.00220811 390985 3092.78 986235 1973.59 3.11334e+07 62294.8 0.127444 0.00084707 112.017 6.47065 90471.1 1716.06 44420.4 1343.38 125220 1661.8 260111 4630.61 0.0201926 0.000187386 266.239 7.75421 33414.7 1909.6 4.40548 0
38 3.18884e+07 81702.5 0.913172 0.00114899 1e+06 0.0570285 0.0336693 3.64753 0.25321 0.16057 0.00317238 376530 3807.33 986802 2202.16 3.2006e+07 76165.3 0.127673 0.000878043 91.8057 7.60421 80759.9 1799.55 37369.2 1518.62 114504 1749.09 232633 4985.46 0.0188727 0.000245207 273.548 11.0804 24507.6 2033.12 4.54087 0
39 3.20519e+07 83717.4 0.900861 0.00163615 1e+06 0.0762501 0.0651353 3.89666 0.211456 0.151526 0.00367038 358947 4598.4 984068 2516.61 3.21275e+07 79753.9 0.142869 0.00115416 76.3201 7.05102 73700.9 1688.14 32075.6 1452.71 105799 1531.91 211576 4583.82 0.017732 0.000264679 328.623 21.7504 15662.9 1912.76 5.29951 0
40 3.27876e+07 113815 0.903812 0.00172123 1e+06 0.108394 0.133054 4.13586 0.155706 0.138106 0.0028071 357974 4373.39 974997 4285.33 3.28296e+07 115372 0.139729 0.00110856 59.9523 6.18389 66274.4 1170.74 26429.4 938.366 98609.8 1032.76 191314 3009.58 0.0163657 0.000197908 421.374 39.9057 8970.13 1272.2 5.67232 0
41 3.32172e+07 138530 0.906956 0.00181415 1e+06 0.139348 0.16008 4.26952 0.12419 0.13033 0.00221407 355308 4355.6 957683 5172.74 3.32413e+07 140357 0.137909 0.00109465 50.9118 5.45575 61556.4 840.084 23295.7 651.915 93860.2 707.474 178712 2060.47 0.0154423 0.000154818 574.641 43.073 5301.6 945.668 6.22735 0
42 3.34742e+07 175194 0.90959 0.00165887 1e+06 0.165331 0.199909 4.29726 0.109153 0.125951 0.00153943 350298 3619.35 937050 6025.67 3.34886e+07 176090 0.139552 0.00183102 45.4562 5.14391 58371.4 595.595 21414.5 417.902 90222.6 574.581 170008 1392.7 0.0147915 0.000112562 723.423 42.7095 3232.41 598.962 6.92246 0
43 3.29012e+07 177133 0.897655 0.00124458 1e+06 0.1783 0.192999 4.30491 0.110071 0.130571 0.00109255 327307 1937.17 915958 5785.97 3.2911e+07 177437 0.162086 0.00261614 47.8847 5.6853 57941.6 420.459 21839.2 291.714 87472.9 498.444 167254 1008.24 0.0147683 7.73439e-05 836.731 29.5561 2222.04 375.598 8.15058 0
44 3.30203e+07 191487 0.899309 0.00147217 1e+06 0.192892 0.193885 4.295 0.100243 0.129669 0.000977654 318688 2187.32 894595 6192.07 3.30272e+07 191923 0.171499 0.00344704 45.9373 5.99139 56103.8 367.128 21026.2 207.519 85021.2 501.621 162151 705.486 0.0143699 8.36229e-05 904.194 19.4667 1631.66 266.517 8.79557 0
45 3.31305e+07 200632 0.900775 0.00147611 1e+06 0.204709 0.150492 4.32346 0.12444 0.129365 0.000914834 309941 2204.58 874307 6291.31 3.31358e+07 201000 0.183183 0.00402404 44.8871 5.35842 54570.9 315.661 20393.5 191.527 82676.6 441.32 157641 601.936 0.014036 7.17223e-05 936.548 12.879 1287.67 215.933 9.33648 0
46 3.3173e+07 169787 0.902489 0.00133393 1e+06 0.215243 0.134553 4.32082 0.102484 0.129651 0.000779553 301905 2064.72 853034 5151.77 3.31772e+07 170136 0.196853 0.00355939 44.0753 5.4852 53258 283.251 19927.7 144.045 80516.4 363.777 153702 435.62 0.0137504 6.41083e-05 954.542 7.49719 1064.64 167.597 9.83618 0
47 3.2499e+07 195660 0.891235 0.00132113 1e+06 0.220647 0.117723 4.31507 0.112937 0.13606 0.000852405 282276 1801.68 831853 5823.16 3.25022e+07 195696 0.225582 0.00402908 48.0595 5.91155 53500.9 249.903 20796.8 152.09 78552.7 425.82 152850 479.247 0.0138554 6.15745e-05 962.959 5.29008 849.737 123.537 10.8064 0
48 3.25604e+07 164688 0.892704 0.00127813 1e+06 0.22915 0.0946901 4.34722 0.111544 0.136638 0.0008157 274402 1734.44 813067 4859.51 3.25632e+07 164678 0.238357 0.00316507 47.3176 5.42987 52299.4 251.963 20395.5 142.598 76571.6 396.853 149266 491.182 0.0136037 5.86405e-05 968.298 5.01821 765.283 127.741 11.1857 0
49 3.26397e+07 212712 0.893938 0.0013503 1e+06 0.237699 0.0982806 4.34302 0.0981392 0.137038 0.000846057 266824 1686.63 795682 5962.66 3.26421e+07 212945 0.250259 0.00429912 46.7163 5.89456 51142.2 254.693 19992.2 135.677 74753.3 359.866 145888 384.237 0.0133465 5.94932e-05 971.844 3.95664 670.828 99.3922 11.5069 0
50 3.27014e+07 175828 0.895369 0.00131461 1e+06 0.245666 0.0742985 4.36444 0.0976721 0.137461 0.000872608 259765 1718.21 778589 4927.59 3.27036e+07 175943 0.26208 0.003614 48.0495 4.56467 50089.5 223.777 19615.2 142.055 72990.9 348.087 142696 385.171 0.0131098 5.83588e-05 974.05 4.08869 609.859 82.6788 11.8169 0
51 3.20497e+07 203234 0.884439 0.00137373 1e+06 0.249165 0.0784105 4.32224 0.104544 0.144065 0.000757155 243587 1573.63 760127 5563.98 3.20514e+07 203189 0.287197 0.00375757 51.7689 5.52137 50320.8 219.342 20486.5 111.322 71395.8 432.953 142203 410.31 0.0132163 5.81059e-05 976.778 3.7549 531.263 76.2237 12.6656 0
52 3.20959e+07 198833 0.886148 0.00133976 1e+06 0.256992 0.0802865 4.33236 0.102929 0.144641 0.000834067 237467 1548.83 743857 5302.56 3.20975e+07 198820 0.298269 0.00374673 51.9237 6.14599 49354 226.621 20147.5 129.853 69791.8 357.855 139293 369.92 0.0129969 5.4032e-05 978.411 3.47941 495.384 74.7842 12.9391 0
53 3.21953e+07 181288 0.887206 0.00138006 1e+06 0.264805 0.0752054 4.37431 0.0850465 0.144966 0.000803499 231137 1712.11 729797 4789.27 3.21967e+07 181296 0.307941 0.00341243 50.8532 5.16905 48357.6 252.336 19776.2 119.041 68286 380.551 136420 414.964 0.0127695 5.424e-05 979.974 3.15897 441.626 59.0782 13.1995 0
54 3.21868e+07 202329 0.888959 0.00139318 1e+06 0.273087 0.0704336 4.37486 0.105353 0.145672 0.00081943 225517 1586.05 713566 5110.89 3.21879e+07 202093 0.319185 0.00380377 51.9428 5.48529 47447.6 235.421 19480.6 125.935 66801 400.732 133729 411.252 0.0125708 5.58368e-05 981.029 2.91206 407.515 73.8718 13.4625 0
55 3.16372e+07 221609 0.878333 0.00151808 1e+06 0.274914 0.0719879 4.35115 0.102808 0.151908 0.00091113 212139 1533.17 699225 5700.29 3.16382e+07 221554 0.339567 0.00395664 56.6094 5.38259 47659.6 211.797 20268.7 141.225 65498.7 328.167 133427 355.139 0.0126589 5.49439e-05 982.37 2.54417 385.859 59.0639 14.2599 0
56 3.16797e+07 211522 0.879945 0.00138834 1e+06 0.282775 0.0684017 4.36057 0.101451 0.152494 0.000788428 207140 1191.79 685249 5280.64 3.16804e+07 211625 0.348982 0.00367313 56.1154 4.8879 46816.2 173.108 19958.4 121.722 64105.4 322.82 130880 360.381 0.0124674 4.5801e-05 983.666 2.59747 356.424 54.9999 14.4949 0
57 3.17133e+07 208164 0.881266 0.00134622 1e+06 0.29067 0.0762807 4.39075 0.103831 0.153255 0.000872248 201915 1322.36 671795 5064.18 3.1714e+07 208446 0.358371 0.00363865 54.8299 5.1908 45937.3 189.252 19671.9 118.145 62751.8 347.262 128361 347.227 0.012283 5.08471e-05 984.511 2.6249 333.374 45.4116 14.743 0
58 3.17774e+07 181164 0.882525 0.00118472 1e+06 0.298341 0.0719289 4.39725 0.091657 0.15368 0.000741108 197064 1499.15 659524 4246.37 3.1778e+07 181227 0.366789 0.00306246 55.2004 5.49064 45126.2 232.305 19359.8 109.185 61488.6 332.334 125975 364.094 0.0120957 4.86029e-05 985.396 2.13226 305.434 41.7104 14.9624 0
59 3.11964e+07 203885 0.872837 0.00141567 1e+06 0.300358 0.0659352 4.37014 0.0927322 0.160076 0.00100703 186435 1312.24 645465 4844.09 3.1197e+07 203977 0.385442 0.0033778 59.945 6.08091 45343.7 209.475 20127.6 136.171 60266.4 400.071 125738 408.223 0.0121957 5.66518e-05 986.362 2.12146 304.061 45.3264 15.7484 0
60 3.12758e+07 224325 0.874061 0.00135955 1e+06 0.307892 0.0734989 4.38131 0.0915414 0.160516 0.000827774 182005 1134.66 634352 5191.1 3.12759e+07 224556 0.392987 0.00353665 59.1944 5.60825 44562.8 171.37 19832.2 115.4 59157.8 335.98 123553 360.775 0.0120102 4.66762e-05 986.599 1.98573 280.808 37.8988 15.9588 0
61 3.12844e+07 194241 0.875427 0.00119254 1e+06 0.315963 0.0666032 4.40884 0.0913433 0.161115 0.000873762 177730 1076.56 622146 4358 3.12847e+07 194256 0.401236 0.00298626 59.765 4.80395 43786.3 184.728 19557.9 119.198 58047.2 328.05 121391 373.513 0.0118379 4.63234e-05 987.655 2.06173 263.333 34.2188 16.1823 0
62 3.13469e+07 201383 0.87682 0.00134999 1e+06 0.323455 0.0691682 4.4029 0.0911529 0.16187 0.000956195 173787 1241.32 611492 4473.1 3.1347e+07 201588 0.408573 0.00317508 58.4536 5.19906 43091.1 201.527 19314.8 122.104 56916.9 316.745 119323 270.061 0.0116802 5.2148e-05 988.598 1.73568 246.98 36.606 16.3924 0
63 3.07745e+07 197668 0.867577 0.00117225 1e+06 0.326073 0.0669108 4.40035 0.0844323 0.167846 0.000937508 164775 1101.4 598683 4376.41 3.07745e+07 197752 0.425188 0.00304427 63.7619 5.46115 43210.5 191.825 19991.9 120.604 55906.5 353.954 119109 339.962 0.0117554 5.39863e-05 989.022 1.83442 236.747 34.164 17.1625 0
64 3.08562e+07 196105 0.868922 0.00143105 1e+06 0.333227 0.0637279 4.42172 0.0933677 0.168269 0.00096059 161245 1240.27 589096 4316.49 3.08565e+07 196057 0.431536 0.00298549 63.7984 4.64282 42565.9 207.678 19713.2 124.474 54873.2 304.484 117152 293.584 0.0115985 5.02551e-05 989.136 1.59421 229.051 34.7953 17.3523 0
65 3.08691e+07 199727 0.870323 0.00136309 1e+06 0.341196 0.0629767 4.41601 0.0892504 0.169224 0.00102646 157565 1094.38 578537 4281.22 3.08694e+07 199781 0.438722 0.00294143 63.5021 5.17617 41862.1 176.548 19499.1 129.805 53865.2 326.807 115226 306.154 0.0114521 5.16238e-05 989.669 1.51717 218.465 29.4918 17.5622 0
66 3.08871e+07 170893 0.871689 0.00136898 1e+06 0.348991 0.0650421 4.41858 0.0811117 0.169777 0.000930795 154219 1276.93 568394 3630.04 3.08872e+07 170942 0.445742 0.00247583 62.2345 4.69515 41229.2 218.105 19250.7 118.925 52908.3 334.572 113388 327.838 0.0113054 5.29114e-05 990 1.52554 212.434 28.2171 17.7738 0
67 3.04469e+07 230999 0.862542 0.00148183 1e+06 0.350743 0.0663755 4.4161 0.0924762 0.175397 0.00102094 146724 1083.87 559047 4832.39 3.04467e+07 231059 0.458937 0.00317405 66.4194 5.6092 41362.7 185.248 19853.7 121.162 51976.8 314.588 113193 298.474 0.0113727 5.1404e-05 990.449 1.52623 201.051 28.7962 18.4938 0
68 3.04457e+07 228558 0.864099 0.00141396 1e+06 0.358591 0.0677147 4.42692 0.0868492 0.176068 0.000955353 143578 1111.22 549116 4654.29 3.04458e+07 228577 0.465444 0.00319921 67.4761 5.61019 40726.6 199.686 19616.9 126.421 51072.9 323.342 111416 347.391 0.0112322 4.64956e-05 990.912 1.45276 195.535 27.7745 18.6921 0
69 3.04969e+07 181436 0.865226 0.00123401 1e+06 0.366255 0.0776592 4.41736 0.0849564 0.176791 0.000923965 140522 978.85 540534 3596.15 3.04966e+07 181497 0.471203 0.00248339 67.5914 5.1338 40116.6 192.274 19394.4 114.142 50191.2 277.931 109702 263.13 0.0110975 4.43952e-05 991.016 1.43186 182.838 24.2344 18.8769 0
70 3.04501e+07 190664 0.867118 0.00124682 1e+06 0.374898 0.077242 4.43102 0.0720763 0.177578 0.000909322 137906 960.667 530293 3719.44 3.045e+07 190654 0.478222 0.00255909 67.2967 4.86799 39568.8 175.476 19195.3 120.377 49330.6 279.173 108095 349.074 0.0109703 3.83585e-05 991.521 1.35437 178.374 27.5004 19.0679 0
