#1-sta 2-avgThroughput 3-stdThroughput 4-JFI 5-stdJFI 6-Bandwidth 7-avgDelay 8-stdDelay 9-avgBackoffStage 10-stdBackoffStage 11-totalFractionOfCollisionSlots 12.stdCollidingSlots 13.avgThroughputDCF 14. stdThroughputDCF 15.avgThroughputECA 16.stdThroughputECA 17.Sum of 15 and 16 18. std of 17 19. AvgBlockingProb 20. StdBlockingProb 21. AvgDroppedPackets 22.StdDropped 23.SxSlots 24.stdSxSlots 25.ColSlots 26.StdColSlots 27.EmptySlots 28.stdEmpty 29.totalSlots 30.stdTotalSlots 31.averageTAU 32.stdTAU 33.avgQSize 34.stdQSize 35.avgQEmpty 36.stdQEmpty 37. avgQDelay 38. stdQDelay
2 1.9412e+06 9617.39 0.999968 4.38759e-05 1e+06 0.000257466 4.64841e-07 0 0 3.94824e-06 8.4212e-07 1.0009e+06 5110.25 0 0 2.0018e+06 10219.5 0 0 0 0 23660 117.791 23.2727 4.96415 5.87077e+06 1877.96 5.89445e+06 1760.73 0.00201092 1.05834e-05 0.0555556 0.157135 23659.9 117.758 0.000265196 0
3 2.90971e+06 11504.9 0.999937 6.13081e-05 1e+06 0.000260134 6.72126e-07 0 0 1.80438e-05 1.88823e-06 1.0002e+06 4075.29 0 0 3.00059e+06 12225.6 0 0 0 0 35436.8 139.301 103.141 10.7863 5.68068e+06 2265.19 5.71622e+06 2124.16 0.00207848 9.11651e-06 0.026936 0.0908466 35436.7 139.336 0.000271657 0
4 3.87898e+06 14031 0.999935 4.5779e-05 1e+06 0.000264305 7.54808e-07 0 0 4.92461e-05 3.07584e-06 1.00002e+06 3721.77 0 0 4.0001e+06 14888.5 0 0 0 0 47197.2 170.811 272.657 16.9933 5.48919e+06 2796.29 5.53666e+06 2622.19 0.00215583 9.14136e-06 0.0378788 0.108733 47197.1 170.804 0.000279785 0
5 4.84997e+06 17851.5 0.999937 4.66515e-05 1e+06 0.000269924 1.07985e-06 0 0 0.000103608 5.25245e-06 1.00026e+06 3805.74 0 0 5.00131e+06 19027.4 0 0 0 0 58944.2 214.291 554.848 27.9936 5.29581e+06 3593.89 5.35531e+06 3370.93 0.00224307 1.01776e-05 0.0363636 0.103918 58944.1 214.305 0.000289451 0
6 5.81852e+06 20982.6 0.999928 4.38945e-05 1e+06 0.000277378 1.07431e-06 0.003367 0.0333316 0.000190519 6.13123e-06 1.00001e+06 3633.03 0 0 6.00006e+06 21797.1 0 0 0 0 70614.1 252.996 985.444 31.3901 5.10087e+06 4258.48 5.17247e+06 3994.42 0.00233955 1.07755e-05 0.0404041 0.0823713 70613.9 252.984 0.000301126 0
7 6.78932e+06 21660.8 0.99993 4.02656e-05 1e+06 0.000286762 1.388e-06 0.002886 0.0285699 0.000318266 8.68942e-06 1.00013e+06 3228.53 0 0 7.00093e+06 22601.5 0 0 0 0 82268.8 260.835 1587.15 42.6828 4.90307e+06 4484.73 4.98693e+06 4206.63 0.0024491 1.06734e-05 0.025974 0.0587214 82268.6 260.809 0.000314887 0
8 7.75884e+06 24051.9 0.999932 3.56351e-05 1e+06 0.000298728 1.60289e-06 0.00126263 0.0124994 0.000501706 1.11396e-05 1.00004e+06 3142.7 0 0 8.0003e+06 25140.8 0 0 0 0 93839.3 287.027 2407.53 52.2688 4.70249e+06 4984.97 4.79874e+06 4677.48 0.00257245 1.13477e-05 0.0416667 0.0794552 93839.1 286.995 0.000331521 0
9 8.7293e+06 26634.7 0.99993 3.14611e-05 1e+06 0.000313256 1.96654e-06 0.0112233 0.0641402 0.000750253 1.56244e-05 1.00011e+06 3106.21 0 0 9.00099e+06 27956.8 0 0 0 0 105346 310.551 3456.67 69.6351 4.4986e+06 5651.08 4.6074e+06 5308.9 0.00271162 1.2424e-05 0.047138 0.0707871 105345 310.468 0.000351019 0
10 9.70017e+06 28102.1 0.999929 3.11172e-05 1e+06 0.000331037 2.23267e-06 0.0111111 0.0446963 0.00108212 1.90248e-05 1.00015e+06 2948.46 0 0 1.00015e+07 29484.6 0 0 0 0 116755 331.593 4774.87 80.333 4.29103e+06 5999.44 4.41256e+06 5631.95 0.0028692 1.3193e-05 0.0444444 0.0806817 116754 331.547 0.000374238 0
11 1.06702e+07 28616.4 0.999929 3.0214e-05 1e+06 0.000352337 2.70252e-06 0.0183655 0.0547894 0.00151173 2.49416e-05 1.00011e+06 2747.27 0 0 1.10012e+07 30220.6 0 0 0 0 128048 334.471 6370.83 99.6831 4.0799e+06 6227.8 4.21431e+06 5848.44 0.00304735 1.38648e-05 0.0569329 0.0823174 128048 334.429 0.000401452 0
12 1.16415e+07 28940.4 0.999928 3.30277e-05 1e+06 0.000378761 3.30063e-06 0.0193603 0.0624827 0.00207798 3.45739e-05 1.00017e+06 2532.17 0 0 1.2002e+07 30387 0 0 0 0 139197 322.972 8335.06 128.025 3.86369e+06 6841.09 4.01122e+06 6435.81 0.00325296 1.5976e-05 0.0580808 0.0798555 139197 322.923 0.000434687 0
13 1.26121e+07 29519.9 0.999922 3.03679e-05 1e+06 0.000410721 3.1465e-06 0.025641 0.066505 0.00279696 3.17622e-05 1.00011e+06 2335.15 0 0 1.30015e+07 30358.3 0 0 0 0 150156 317.414 10640.1 108.03 3.64343e+06 6535.41 3.80422e+06 6156.44 0.00348757 1.51117e-05 0.064491 0.0957572 150156 317.406 0.000474402 0
14 1.35835e+07 30094.8 0.999927 2.88635e-05 1e+06 0.000449777 3.84921e-06 0.038961 0.0794699 0.0037259 3.99687e-05 1.0001e+06 2235.2 0 0 1.40014e+07 31297.8 0 0 0 0 160896 323.223 13382.3 126.414 3.41748e+06 6712.11 3.59176e+06 6322.92 0.00376113 1.66461e-05 0.0772006 0.0835198 160896 323.123 0.000522577 0
15 1.45542e+07 32745.9 0.999925 2.62497e-05 1e+06 0.00049761 5.11012e-06 0.020202 0.0539814 0.00490223 5.57555e-05 1.00012e+06 2222.31 0 0 1.50018e+07 33330.6 0 0 0 0 171347 336.602 16543.2 160.515 3.1868e+06 7566.13 3.37469e+06 7137.15 0.00407863 1.99136e-05 0.0531986 0.0715264 171347 336.541 0.000581685 0
16 1.55244e+07 33610.8 0.999926 2.62488e-05 1e+06 0.000556143 6.2823e-06 0.0258838 0.0615522 0.00640274 7.44405e-05 1.00001e+06 2194.52 0 0 1.60002e+07 35115.4 0 0 0.00315657 0.0312484 181445 346.283 20183.5 192.182 2.95077e+06 8298.71 3.1524e+06 7829.11 0.00445175 2.39666e-05 0.0675505 0.0730798 181445 346.21 0.000654295 0
17 1.64951e+07 33269 0.999925 2.81621e-05 1e+06 0.000629863 7.46151e-06 0.0582294 0.116601 0.00832748 9.59197e-05 999894 2066.49 0 0 1.69982e+07 35130 0 0 0.0160428 0.0751628 191043 336.157 24354.3 223.988 2.70926e+06 8435.82 2.92466e+06 7969.41 0.00489498 2.71222e-05 0.0897207 0.122406 191043 336.128 0.00074726 0
18 1.74682e+07 33682.1 0.999926 2.4521e-05 1e+06 0.000723292 1.00849e-05 0.0819304 0.142647 0.0108272 0.000117376 999968 1972.69 0 0 1.79994e+07 35510.2 0 0 0.0314254 0.104208 200041 322.175 29130.9 240.083 2.46143e+06 8490.08 2.6906e+06 8041.53 0.00543153 3.0605e-05 0.116723 0.143551 200040 322.135 0.000867185 0
19 1.84439e+07 33548.2 0.999928 2.46275e-05 1e+06 0.000844502 1.46166e-05 0.0808081 0.129638 0.0140999 0.000171966 1e+06 1909.34 0 0 1.90001e+07 36276.8 0 0 0.108453 0.189222 208250 275.035 34549.3 305.233 2.20763e+06 9275.19 2.45043e+06 8831.98 0.00608969 3.89836e-05 0.119617 0.116569 208249 275.059 0.00102729 0
20 1.94191e+07 35085.5 0.999922 2.62738e-05 1e+06 0.00100194 1.79829e-05 0.14798 0.200368 0.0184038 0.000195809 999963 1844.59 0 0 1.99993e+07 36892.1 0 0 0.392929 0.345462 215315 292.025 40598.7 288.608 1.95016e+06 8941.08 2.20608e+06 8529.95 0.00690001 4.35634e-05 0.176263 0.183449 215315 292.051 0.00124574 0
21 2.03965e+07 36127.8 0.999919 2.84472e-05 1e+06 0.00121022 2.13096e-05 0.176527 0.209626 0.0241198 0.000250744 999948 1781.7 0 0 2.09989e+07 37418.2 0 0 0.869649 0.584921 220970 258.44 47246.9 293.076 1.69071e+06 9188.37 1.95893e+06 8791.87 0.00791325 5.39764e-05 0.195767 0.192139 220970 258.43 0.00155013 0
22 2.13725e+07 36273.8 0.99992 2.35979e-05 1e+06 0.00149192 2.98207e-05 0.204316 0.24494 0.0317774 0.00036697 999779 1723.22 0 0 2.19951e+07 37902.2 0 0 2.24702 0.97258 224584 256.68 54425.2 343.153 1.4338e+06 9841.43 1.71281e+06 9465.75 0.00918541 7.13949e-05 0.224518 0.228218 224583 256.638 0.00199187 0
23 2.23448e+07 35943.3 0.999917 2.56504e-05 1e+06 0.00187698 4.37851e-05 0.346069 0.273443 0.0420174 0.000482288 999374 1624.33 0 0 2.29856e+07 37362.8 0 0 6.58059 1.80634 225651 307.899 61866.2 342.49 1.18498e+06 9361.79 1.4725e+06 9065.09 0.0107824 8.8136e-05 0.366711 0.252097 225650 307.926 0.00265739 0
24 2.33115e+07 39381.1 0.999917 2.52723e-05 1e+06 0.00239689 6.01944e-05 0.396885 0.322984 0.0552529 0.000605339 998552 1627.9 0 0 2.39652e+07 39072 0 0 16.9777 2.70931 223729 364.273 68974.1 317.047 955721 8607.22 1.24842e+06 8418.44 0.0127162 0.000105697 0.453704 0.372767 223728 364.234 0.00366024 0
25 2.4255e+07 39832.8 0.999917 2.2999e-05 1e+06 0.00309696 9.85785e-05 0.581818 0.330205 0.0716865 0.000784839 996655 1637.29 0 0 2.49164e+07 40929 0 0 40.5362 4.49915 218396 504.32 75231.3 290.358 755904 7732.62 1.04953e+06 7743.33 0.0149442 0.000125277 0.630303 0.371602 218396 504.354 0.0051757 0
26 2.51483e+07 38178 0.999917 2.67299e-05 1e+06 0.00400978 0.000128742 0.67599 0.317213 0.0901015 0.000886447 992856 1509.18 0 0 2.58142e+07 39240.4 0 0 86.2148 6.79646 209882 576.985 79894.3 239.492 597000 6271.77 886777 6457.68 0.0172094 0.000131312 0.862471 0.420049 209881 576.955 0.0074017 0
27 2.59712e+07 41628.4 0.999907 2.47621e-05 1e+06 0.00512577 0.000182746 0.89899 0.387691 0.108212 0.000886317 986617 1575.18 0 0 2.66387e+07 42523.9 0 0 161.77 9.25255 199378 643.511 82529.2 200.721 480795 4740.17 762702 5090.89 0.0191836 0.000124159 1.17359 0.518509 199376 643.57 0.0103952 0
28 2.673e+07 46580.5 0.999887 3.02439e-05 1e+06 0.0064483 0.000238647 1.05519 0.419833 0.124403 0.000837767 978372 1683.94 0 0 2.73944e+07 47145.3 0 0 262.151 12.9713 187719 719.788 83353.3 188.62 398980 3579.35 670052 4123.59 0.0206735 0.000106101 1.54726 0.669556 187714 720.363 0.0142262 0
29 2.74201e+07 41532.3 0.999876 3.4693e-05 1e+06 0.00794533 0.000290401 1.3086 0.387421 0.138141 0.000656451 968296 1442.32 0 0 2.80806e+07 41823.2 0 0 384.824 14.8317 176021 689.677 82806.6 191.145 340624 2646.35 599452 3284.68 0.0216994 8.33637e-05 2.07698 0.720519 176008 690.876 0.0187712 0
30 2.8069e+07 49747.9 0.999854 3.90453e-05 1e+06 0.0096356 0.000284239 1.44579 0.409691 0.149994 0.000663595 957458 1697.41 0 0 2.87237e+07 50921.2 0 0 516.443 14.2134 164508 703.907 81283.9 202.385 296135 2318.46 541927 3018.04 0.022396 7.92031e-05 2.62088 0.826886 164474 706.981 0.0240118 0
31 2.86793e+07 58299.9 0.999835 3.98192e-05 1e+06 0.0115468 0.000362464 1.61225 0.336955 0.160549 0.000589086 946108 1916.37 0 0 2.93294e+07 59408.9 0 0 654.211 18.0897 153239 732.067 79116.7 245.519 260442 1856.32 492797 2624.11 0.0228703 6.52456e-05 3.19844 0.948914 153161 735.921 0.0299502 0
32 2.92811e+07 62589.4 0.999804 4.57035e-05 1e+06 0.0136886 0.000473635 1.75947 0.349779 0.17009 0.000707269 935120 1985.95 0 0 2.99238e+07 63552.4 0 0 786.526 21.7256 142417 866.437 76440.2 290.648 230564 2020.52 449421 2993.74 0.0231963 7.75143e-05 3.8084 1.02756 142265 873.782 0.0365214 0
33 2.98827e+07 64320.2 0.999772 5.05166e-05 1e+06 0.0162314 0.000586806 1.84083 0.273503 0.179035 0.000632613 924648 1962.56 0 0 3.05134e+07 64762.6 0 0 913.813 24.0948 131370 813.589 73130.4 347.496 203976 1759.79 408476 2694.58 0.023426 7.20613e-05 4.25344 1.05514 131090 824.003 0.0442049 0
34 3.04744e+07 72138.7 0.999741 6.59172e-05 1e+06 0.0192006 0.000781318 2.04724 0.303269 0.187425 0.000610475 914509 2118.59 0 0 3.10933e+07 72031.8 0 0 1036.47 21.1549 120523 959.827 69458.6 448.652 180619 1786.9 370600 3040.26 0.0235647 6.65503e-05 5.40285 1.20553 120048 984.421 0.0530366 0
35 3.11059e+07 67343.8 0.999705 6.59336e-05 1e+06 0.022947 0.001166 2.2101 0.289536 0.195648 0.000710496 905902 1913.09 0 0 3.17066e+07 66958.3 0 0 1140.18 22.0119 109030 1088.06 64928.4 563.189 157913 1887.24 331871 3430.03 0.0236798 6.78512e-05 6.60895 1.52852 108233 1124.66 0.0640773 0
36 3.18211e+07 91369.2 0.999705 6.82536e-05 1e+06 0.0278419 0.001916 2.31453 0.263459 0.203974 0.000773399 899868 2477.74 0 0 3.23953e+07 89203.2 0 0 1212.3 23.9186 96886.7 1470.72 59638.1 758.21 135868 2305.94 292393 4470.36 0.023765 6.8058e-05 8.13103 1.90065 95590.6 1549.16 0.0783403 0
37 3.2711e+07 94996.3 0.999702 7.92949e-05 1e+06 0.0354678 0.00382534 2.46956 0.334219 0.213169 0.000962027 898428 2433.2 0 0 3.32418e+07 90021.3 0 0 1227.59 22.772 82245.6 1923.96 52494.8 1074.82 111539 2904.65 246279 5857.69 0.023882 8.18165e-05 10.6227 3.00392 80085.5 2059.26 0.100898 0
38 3.40503e+07 269816 0.999707 7.35448e-05 1e+06 0.0543055 0.0704865 2.71531 0.289615 0.225412 0.0021753 907432 6158.3 0 0 3.44824e+07 234017 0 0 1104.23 78.0289 59949.8 5699.21 39982 3651.23 77598.6 8110.48 177530 17446.7 0.0240776 0.000115175 24.2084 21.0132 55672.1 6532.76 0.177523 0
39 3.57101e+07 164996 0.99873 0.000466134 1e+06 0.14853 0.33201 3.03548 0.255781 0.239803 0.00158585 919256 3994.45 0 0 3.5851e+07 155789 0.00438156 0.00309566 580.888 68.187 25000.6 3257.68 16777.7 2294.99 28226.9 4357.46 70005.2 9901.91 0.0240787 0.000115078 349.835 51.3555 14374.8 4002.63 1.41855 0
40 3.57129e+07 154213 0.996818 0.000717988 1e+06 0.19564 0.192712 3.03207 0.239239 0.244435 0.00146538 894727 3945.09 0 0 3.57891e+07 157808 0.0243583 0.00395816 482.104 23.0736 19545.1 833.486 13090.3 570.053 20924.2 1076.94 53559.6 2455.81 0.0237404 0.000125235 504.168 31.6965 7570.98 1007.45 2.68614 0
41 3.56457e+07 141347 0.995304 0.00110478 1e+06 0.222075 0.145701 3.10347 0.238799 0.247978 0.00130017 870722 3485.61 0 0 3.56996e+07 142906 0.0442223 0.003658 449.217 16.44 17722.5 415.391 11946 286.038 18506.9 530.776 48175.4 1196.99 0.0233798 0.000116484 587.622 25.4634 5305.78 505.625 3.51869 0
42 3.54881e+07 145150 0.993421 0.00140942 1e+06 0.240997 0.133724 3.11688 0.25109 0.251691 0.00144673 845962 3485.6 0 0 3.55304e+07 146399 0.0661458 0.00368308 433.968 14.9327 16765.5 294.602 11432.4 193.868 17225.9 372.778 45423.9 803.124 0.0230478 0.000118306 637.787 25.5961 4159.7 347.366 4.21077 0
43 3.53534e+07 123330 0.992287 0.00152472 1e+06 0.257909 0.12186 3.09302 0.259429 0.255082 0.00151908 822957 2889.71 0 0 3.53871e+07 124259 0.086026 0.00371044 426.106 13.3573 16046.9 248.737 11051.8 169.981 16228.7 320.316 43327.4 684.986 0.0227263 0.000117583 684.005 22.8472 3306.92 293.974 4.81554 0
44 3.51969e+07 141917 0.990923 0.00164068 1e+06 0.272259 0.125803 3.09068 0.242047 0.25845 0.00143151 800570 3237.59 0 0 3.52251e+07 142448 0.105982 0.00373388 421.378 12.9443 15562.8 213.507 10843.7 139.644 15551.8 319.582 41958.3 610.357 0.0224142 0.000119835 717.982 20.9187 2765.19 241.812 5.3356 0
45 3.50258e+07 127961 0.989459 0.00207738 1e+06 0.285529 0.114684 3.06846 0.213351 0.261726 0.00146551 778867 2854.82 0 0 3.5049e+07 128467 0.125421 0.00356877 418.578 12.4339 15178.5 167.648 10703.7 105.919 15015.6 250.161 40897.9 463.857 0.0220982 0.000111956 748.548 20.8132 2353.2 190.349 5.81851 0
46 3.48428e+07 132487 0.988854 0.00227719 1e+06 0.297976 0.104423 3.10606 0.189273 0.265431 0.0016214 757896 2879.53 0 0 3.48632e+07 132452 0.144702 0.00311998 418.364 11.8603 14852.2 146.5 10614.8 100.355 14524.7 226.794 39991.6 384.489 0.0218297 0.000112839 769.818 19.9176 2024.11 164.337 6.29421 0
47 3.46767e+07 126670 0.987358 0.00232476 1e+06 0.309369 0.0993783 3.11519 0.21433 0.26877 0.0016846 738182 2707.39 0 0 3.46946e+07 127246 0.162465 0.00311704 418.594 12.8739 14615.8 153.177 10575.2 101.323 14157 246.706 39348.1 433.263 0.021553 0.000111456 793.215 19.4225 1800.91 169.902 6.70974 0
48 3.4497e+07 121723 0.986684 0.0023466 1e+06 0.320856 0.0938036 3.15362 0.199092 0.271719 0.00158218 719015 2538.04 0 0 3.45127e+07 121826 0.180112 0.00279898 420.075 13.1652 14376.3 103.686 10524.4 75.2366 13832.7 195.574 38733.5 285.966 0.0212608 0.000101942 810.075 20.2821 1582.15 112.008 7.13082 0
49 3.43545e+07 112587 0.986335 0.00264531 1e+06 0.331402 0.0933584 3.15399 0.217982 0.274851 0.00145769 701387 2310.41 0 0 3.4368e+07 113210 0.196176 0.00265074 419.727 10.4072 14188.2 108.306 10492.1 73.7543 13494.2 200.226 38174.5 305.966 0.0210125 0.000106963 829.294 15.0115 1406.72 114.59 7.51255 0
50 3.41947e+07 124972 0.985229 0.00257503 1e+06 0.341611 0.0886024 3.13172 0.248958 0.278004 0.00162604 684141 2509.18 0 0 3.42071e+07 125463 0.212275 0.00273908 420.908 12.2689 14038.9 100.402 10502.6 70.0571 13238.1 207.115 37779.6 290.844 0.0207619 0.000105056 842.372 17.6432 1292.69 105.833 7.88092 0
51 3.40158e+07 119382 0.984666 0.002802 1e+06 0.351993 0.088811 3.15389 0.241714 0.281424 0.00155786 667196 2346.68 0 0 3.4027e+07 119678 0.228237 0.0025222 422.364 11.1644 13876.6 96.4213 10511.8 69.9775 12964.6 209.342 37353 294.869 0.0205316 0.00010474 853.062 15.5531 1173.49 101.933 8.23948 0
52 3.38436e+07 112418 0.98409 0.00283327 1e+06 0.361628 0.0772399 3.1824 0.199877 0.284401 0.00139813 651042 2162.25 0 0 3.38542e+07 112442 0.243229 0.00283058 425.913 11.6753 13757.8 78.8351 10543.3 55.866 12771.7 180.402 37072.8 247.112 0.0202811 8.61287e-05 863.586 14.3991 1103.91 80.6951 8.58136 0
53 3.36747e+07 112632 0.983648 0.00310893 1e+06 0.37193 0.0778685 3.17095 0.203847 0.28784 0.00148613 635554 2126.94 0 0 3.36844e+07 112726 0.257726 0.00256655 426.566 11.017 13614.1 85.706 10556.4 63.0524 12504.3 160.779 36674.8 217.393 0.0200764 9.57332e-05 875.25 12.504 1002.38 84.7128 8.91302 0
54 3.35273e+07 131500 0.983134 0.0028986 1e+06 0.381292 0.0866172 3.20614 0.20651 0.290706 0.0016432 621044 2432.78 0 0 3.35364e+07 131371 0.2712 0.00283705 429.367 10.8452 13510.3 81.6048 10586.1 60.0532 12319.5 183.669 36415.9 240.285 0.0198493 9.41697e-05 884.928 12.0829 941.172 73.0876 9.22464 0
55 3.33709e+07 107926 0.982636 0.00295107 1e+06 0.391281 0.0681031 3.18145 0.176469 0.29379 0.00137414 606899 1965.21 0 0 3.33794e+07 108091 0.284239 0.00228975 431.573 9.5611 13396.5 66.1172 10611.3 54.9167 12111.3 161.732 36119 198.617 0.0196444 9.50329e-05 896.432 11.9374 872.596 65.7745 9.54691 0
56 3.31991e+07 123733 0.982991 0.0031349 1e+06 0.40079 0.0795235 3.17009 0.184312 0.296843 0.00146672 592974 2214.32 0 0 3.32065e+07 124000 0.297399 0.00238363 436.189 10.8916 13286.9 78.0116 10651.8 60.9056 11945.2 166.22 35883.9 202.459 0.0194227 9.12712e-05 900.998 10.9974 815.424 71.3282 9.85516 0
57 3.3051e+07 98606.4 0.982761 0.00295077 1e+06 0.410299 0.0656547 3.19227 0.205185 0.299819 0.0013975 579966 1725.63 0 0 3.30581e+07 98361.1 0.309842 0.00207818 436.036 9.33555 13189.9 58.4993 10681.1 49.3713 11754.5 156.529 35625.4 185.092 0.0192349 8.93106e-05 907.807 11.1257 763.01 57.0781 10.1527 0
58 3.28922e+07 124108 0.982077 0.00332779 1e+06 0.419583 0.076398 3.20063 0.205052 0.302653 0.00141325 567226 2141.9 0 0 3.28991e+07 124233 0.321808 0.00218235 441.646 11.2125 13105.5 61.7324 10727.3 53.7227 11612 152.942 35444.8 178.476 0.0190297 7.8185e-05 911.659 10.3104 730.626 43.6473 10.436 0
59 3.27447e+07 111930 0.982095 0.00295556 1e+06 0.429168 0.0710995 3.23729 0.203675 0.305616 0.00162351 555095 1901.36 0 0 3.27506e+07 112185 0.33327 0.00220349 443.026 9.44415 13011.4 64.3893 10760.9 53.7766 11439 173.024 35211.4 210.789 0.0188384 9.49851e-05 918.442 8.06947 682.343 55.0111 10.7357 0
60 3.26095e+07 100407 0.982203 0.00295292 1e+06 0.43794 0.0665622 3.22542 0.191637 0.308242 0.0015184 543588 1676.72 0 0 3.26153e+07 100602 0.34429 0.00187947 445.323 9.70671 12942.4 53.612 10802.3 52.9922 11300.8 172.714 35045.5 197.765 0.0186442 9.60382e-05 922.327 9.53542 661.313 50.3621 11.0057 0
61 3.24433e+07 122419 0.981529 0.00341595 1e+06 0.447908 0.0698532 3.23762 0.197443 0.311816 0.00149658 531952 2008.86 0 0 3.24491e+07 122546 0.355395 0.00203478 446.054 10.9589 12850.6 60.9277 10851.6 52.0086 11099.7 172.594 34801.9 196.355 0.0185111 9.10913e-05 928.083 8.30997 625.808 46.8088 11.3022 0
62 3.22927e+07 110295 0.980637 0.00360048 1e+06 0.457573 0.0787851 3.22076 0.215854 0.314377 0.001678 520938 1778.33 0 0 3.22981e+07 110256 0.365884 0.0019506 449.854 10.7947 12768.2 58.1686 10888.8 53.446 10979.9 171.021 34636.9 197.637 0.0183192 9.16971e-05 930.477 8.40683 594.798 49.6804 11.5785 0
63 3.21617e+07 107517 0.98064 0.00307022 1e+06 0.466491 0.0741016 3.22527 0.222711 0.317162 0.00161601 510580 1708.75 0 0 3.21665e+07 107650 0.375751 0.00201223 452.837 9.68675 12700.3 58.3593 10929.2 47.6446 10830.5 148.526 34460 177.11 0.018152 7.89074e-05 933.552 8.63647 569.616 49.4382 11.8389 0
64 3.19799e+07 113937 0.979776 0.00390666 1e+06 0.47669 0.0868178 3.28772 0.227123 0.320183 0.00138239 499761 1777.73 0 0 3.19847e+07 113777 0.386149 0.00191875 454.674 10.5446 12609.8 56.6606 10980.5 53.0198 10704.6 152.945 34294.9 184.371 0.0179884 8.03576e-05 937.086 8.38296 542.636 49.4625 12.1401 0
65 3.18427e+07 126760 0.980534 0.00342771 1e+06 0.485565 0.0706961 3.24942 0.21511 0.322961 0.00152164 489959 1952.3 0 0 3.18473e+07 126900 0.395293 0.00209401 458.743 8.97956 12538.1 58.0599 11025.4 53.8549 10575.2 148.19 34138.7 167.519 0.0178327 7.6068e-05 940.928 8.8665 519.535 40.8707 12.394 0
66 3.17178e+07 107931 0.979489 0.00321635 1e+06 0.494936 0.0788609 3.22834 0.206439 0.325456 0.00140534 480636 1635.06 0 0 3.1722e+07 107914 0.404076 0.00177313 462.585 8.93971 12477.8 53.3263 11066.9 50.3988 10459.8 138.263 34004.5 167.984 0.0176618 7.55554e-05 943.68 7.22744 502.232 42.3749 12.6526 0
67 3.15808e+07 120746 0.979297 0.00347697 1e+06 0.504429 0.0706946 3.25162 0.201154 0.328265 0.00169947 471419 1802.43 0 0 3.1585e+07 120760 0.413017 0.00198672 462.51 8.63425 12409.4 56.8232 11106.6 53.6797 10318.7 151.564 33834.7 178.095 0.0175163 7.88e-05 947.172 7.05609 482.071 40.7501 12.9264 0
68 3.14312e+07 104440 0.979281 0.00349117 1e+06 0.513852 0.0781115 3.29753 0.199916 0.331252 0.00135529 462281 1538.29 0 0 3.14351e+07 104611 0.421812 0.00162629 464.299 9.64837 12340.4 53.936 11156.3 42.955 10183 149.304 33679.7 166.016 0.0173832 7.94487e-05 949.523 6.22989 467.081 41.2944 13.1815 0
69 3.12938e+07 116765 0.979242 0.00362145 1e+06 0.523071 0.0751379 3.24828 0.213811 0.333382 0.00173637 453592 1695.38 0 0 3.12979e+07 116983 0.429939 0.00158832 469.589 9.01439 12273.1 54.8944 11203.9 51.1205 10130.4 146.559 33607.5 165.609 0.0172043 7.88014e-05 951.141 6.49249 448.828 41.5145 13.4303 0
70 3.11828e+07 105656 0.979225 0.00332601 1e+06 0.532024 0.0785872 3.27547 0.221853 0.33624 0.00142889 445522 1509.83 0 0 3.11866e+07 105683 0.43777 0.00185126 469.132 8.22035 12221.8 51.1177 11240.7 44.442 9968.53 135.268 33431.1 150.138 0.0170814 6.90251e-05 954.684 5.69502 436.646 35.4803 13.6803 0
